4,   channel VNIR3a SRF from LSTM_ISRF_all_bands.xlsx
Number of data points:
126
Wavenumber (cm-1)   Filter response
    10209.290454       0.000026
    10214.504597       0.000029
    10219.724067       0.000034
    10224.948875       0.000038
    10230.179028       0.000044
    10235.414534       0.000050
    10240.655402       0.000058
    10245.901639       0.000067
    10251.153255       0.000078
    10256.410256       0.000091
    10261.672653       0.000106
    10266.940452       0.000125
    10272.213662       0.000147
    10277.492292       0.000173
    10282.776350       0.000206
    10288.065844       0.000245
    10293.360782       0.000294
    10298.661174       0.000353
    10303.967027       0.000427
    10309.278351       0.000519
    10314.595152       0.000633
    10319.917441       0.000778
    10325.245225       0.000961
    10330.578512       0.001195
    10335.917313       0.001496
    10341.261634       0.001886
    10346.611485       0.002395
    10351.966874       0.003066
    10357.327809       0.003959
    10362.694301       0.005155
    10368.066356       0.006777
    10373.443983       0.008994
    10378.827193       0.012056
    10384.215992       0.016321
    10389.610390       0.022310
    10395.010395       0.030767
    10400.416017       0.042719
    10405.827263       0.059534
    10411.244144       0.082838
    10416.666667       0.114314
    10422.094841       0.155232
    10427.528676       0.205792
    10432.968179       0.264856
    10438.413361       0.330228
    10443.864230       0.399144
    10449.320794       0.469070
    10454.783063       0.537886
    10460.251046       0.604235
    10465.724751       0.667108
    10471.204188       0.725876
    10476.689366       0.779946
    10482.180294       0.828819
    10487.676980       0.871869
    10493.179433       0.908506
    10498.687664       0.938336
    10504.201681       0.961210
    10509.721492       0.977569
    10515.247108       0.988294
    10520.778538       0.994674
    10526.315789       0.997966
    10531.858873       0.999465
    10537.407798       0.999939
    10542.962572       1.000000
    10548.523207       0.999845
    10554.089710       0.999637
    10559.662091       0.999317
    10565.240359       0.998843
    10570.824524       0.998210
    10576.414595       0.997353
    10582.010582       0.996334
    10587.612493       0.995189
    10593.220339       0.994064
    10598.834128       0.992940
    10604.453871       0.992050
    10610.079576       0.991285
    10615.711253       0.990350
    10621.348911       0.988285
    10626.992561       0.983471
    10632.642212       0.973422
    10638.297872       0.955334
    10643.959553       0.926832
    10649.627263       0.887104
    10655.301012       0.836985
    10660.980810       0.778616
    10666.666667       0.714542
    10672.358591       0.647267
    10678.056594       0.578741
    10683.760684       0.510593
    10689.470871       0.443926
    10695.187166       0.379757
    10700.909577       0.318915
    10706.638116       0.262337
    10712.372791       0.210975
    10718.113612       0.165729
    10723.860590       0.127232
    10729.613734       0.095683
    10735.373054       0.070762
    10741.138561       0.051733
    10746.910263       0.037595
    10752.688172       0.027297
    10758.472297       0.019891
    10764.262648       0.014589
    10770.059235       0.010793
    10775.862069       0.008060
    10781.671159       0.006078
    10787.486516       0.004627
    10793.308149       0.003554
    10799.136069       0.002753
    10804.970286       0.002149
    10810.810811       0.001690
    10816.657653       0.001338
    10822.510823       0.001067
    10828.370330       0.000855
    10834.236186       0.000690
    10840.108401       0.000560
    10845.986985       0.000457
    10851.871948       0.000375
    10857.763301       0.000309
    10863.661054       0.000256
    10869.565217       0.000213
    10875.475802       0.000178
    10881.392818       0.000149
    10887.316277       0.000126
    10893.246187       0.000106
    10899.182561       0.000090
    10905.125409       0.000077
