  14  ,noaa_12_hirs_14.flt
Number of data points:
101
Wavenumber (cm-1)   Filter response
     2175.100000       0.000000
     2175.800000       0.000931
     2176.500000       0.000933
     2177.200000       0.000936
     2177.900000       0.000938
     2178.600000       0.000941
     2179.400000       0.001481
     2180.100000       0.003510
     2180.800000       0.003519
     2181.400000       0.005022
     2182.200000       0.005580
     2182.900000       0.006004
     2183.600000       0.006019
     2184.300000       0.007543
     2185.000000       0.009488
     2185.700000       0.008772
     2186.400000       0.009618
     2187.100000       0.009630
     2187.800000       0.011594
     2188.500000       0.011881
     2189.200000       0.012589
     2189.900000       0.017935
     2190.600000       0.022299
     2191.300000       0.027372
     2192.000000       0.034002
     2192.700000       0.041909
     2193.400000       0.054203
     2194.100000       0.071739
     2194.800000       0.092693
     2195.600000       0.115640
     2196.200000       0.155540
     2196.900000       0.195120
     2197.600000       0.242860
     2198.300000       0.315550
     2199.000000       0.404600
     2199.700000       0.491980
     2200.300000       0.580790
     2201.000000       0.663310
     2201.700000       0.729710
     2202.400000       0.784910
     2203.100000       0.824520
     2203.800000       0.853640
     2204.500000       0.867960
     2205.100000       0.882050
     2205.900000       0.895510
     2206.600000       0.908560
     2207.300000       0.920920
     2208.000000       0.934290
     2208.700000       0.948250
     2209.400000       0.965650
     2210.100000       0.979710
     2210.800000       0.992140
     2211.500000       0.996430
     2212.200000       0.997570
     2212.900000       1.000000
     2213.600000       0.998840
     2214.400000       0.989750
     2215.000000       0.974730
     2215.700000       0.958960
     2216.500000       0.938560
     2217.200000       0.911840
     2217.900000       0.873540
     2218.600000       0.814980
     2219.300000       0.737720
     2220.100000       0.642360
     2220.800000       0.550050
     2221.500000       0.459880
     2222.200000       0.381110
     2222.900000       0.296780
     2223.600000       0.238410
     2224.300000       0.188700
     2225.000000       0.144660
     2225.700000       0.108720
     2226.400000       0.084043
     2227.100000       0.065856
     2227.800000       0.051439
     2228.500000       0.041342
     2229.200000       0.033694
     2229.800000       0.029211
     2230.500000       0.024585
     2231.200000       0.018377
     2231.900000       0.015336
     2232.600000       0.013875
     2233.300000       0.013423
     2234.000000       0.010958
     2234.700000       0.011081
     2235.400000       0.009823
     2236.100000       0.008512
     2236.800000       0.007779
     2237.500000       0.007047
     2238.200000       0.005738
     2238.800000       0.004573
     2239.500000       0.003697
     2240.200000       0.001956
     2240.900000       0.000071
     2241.600000       0.000060
     2242.300000       0.000048
     2242.900000       0.000036
     2243.600000       0.000024
     2244.300000       0.000012
     2245.000000       0.000000
