  13  ,noaa_17_hirs_13.flt
Number of data points:
98
Wavenumber (cm-1)   Filter response
     2163.900000       0.000000
     2165.100000       0.018152
     2165.400000       0.024513
     2165.900000       0.028161
     2166.400000       0.030722
     2166.900000       0.032923
     2167.400000       0.037856
     2167.900000       0.046259
     2168.400000       0.055584
     2168.900000       0.067292
     2169.400000       0.085585
     2169.900000       0.111020
     2170.400000       0.138690
     2170.900000       0.170230
     2171.400000       0.212100
     2171.900000       0.266330
     2172.400000       0.329100
     2172.900000       0.397860
     2173.400000       0.474460
     2173.900000       0.559100
     2174.400000       0.643720
     2174.900000       0.720680
     2175.400000       0.790740
     2175.900000       0.852800
     2176.400000       0.903690
     2176.900000       0.943940
     2177.400000       0.975760
     2177.900000       0.995770
     2178.400000       1.000000
     2178.900000       0.991420
     2179.400000       0.976340
     2179.900000       0.954370
     2180.400000       0.922710
     2180.900000       0.885060
     2181.400000       0.846240
     2181.900000       0.808450
     2182.400000       0.773920
     2182.900000       0.744770
     2183.400000       0.720810
     2183.900000       0.700370
     2184.400000       0.684580
     2184.900000       0.673620
     2185.400000       0.666510
     2185.900000       0.663180
     2186.400000       0.665810
     2186.900000       0.671250
     2187.400000       0.675200
     2187.900000       0.676910
     2188.400000       0.678430
     2188.900000       0.679880
     2189.400000       0.681350
     2189.900000       0.682080
     2190.400000       0.680940
     2190.900000       0.678100
     2191.400000       0.673370
     2191.900000       0.667690
     2192.400000       0.660830
     2192.900000       0.650840
     2193.400000       0.636900
     2193.900000       0.616560
     2194.400000       0.590950
     2194.900000       0.564590
     2195.400000       0.538610
     2195.900000       0.509260
     2196.400000       0.477310
     2196.900000       0.447590
     2197.400000       0.421230
     2197.900000       0.396550
     2198.400000       0.370890
     2198.900000       0.343510
     2199.400000       0.314570
     2199.900000       0.285230
     2200.400000       0.258670
     2200.900000       0.235260
     2201.400000       0.212180
     2201.900000       0.190750
     2202.400000       0.171370
     2202.900000       0.151110
     2203.400000       0.133670
     2203.900000       0.122310
     2204.400000       0.113040
     2204.900000       0.101460
     2205.400000       0.091014
     2205.900000       0.080361
     2206.400000       0.070269
     2206.900000       0.062080
     2207.400000       0.053496
     2207.900000       0.042021
     2208.400000       0.031491
     2208.900000       0.026133
     2209.400000       0.025959
     2209.900000       0.027325
     2210.400000       0.028114
     2210.900000       0.026978
     2211.500000       0.019286
     2214.500000       0.015017
     2217.500000       0.010712
     2222.500000       0.000000
