3,   channel 3 SRF from file SRF_SSH-1_Delivery_220520/SRF_DMSP-F2_SSH_Chan03.asc received June 2022 from SPASCIA
Number of data points:
541
Wavenumber (cm-1)   Filter response
      346.000000       0.002700
      346.100000       0.002700
      346.200000       0.002800
      346.300000       0.002800
      346.400000       0.002900
      346.500000       0.002900
      346.600000       0.003100
      346.700000       0.003200
      346.800000       0.003300
      346.900000       0.003400
      347.000000       0.003500
      347.100000       0.003500
      347.200000       0.003600
      347.300000       0.003600
      347.400000       0.003700
      347.500000       0.003800
      347.600000       0.003800
      347.700000       0.003900
      347.800000       0.003900
      347.900000       0.004000
      348.000000       0.004000
      348.100000       0.004100
      348.200000       0.004200
      348.300000       0.004300
      348.400000       0.004500
      348.500000       0.004600
      348.600000       0.004700
      348.700000       0.004900
      348.800000       0.005000
      348.900000       0.005200
      349.000000       0.005400
      349.100000       0.005500
      349.200000       0.005600
      349.300000       0.005700
      349.400000       0.005800
      349.500000       0.005900
      349.600000       0.006100
      349.700000       0.006200
      349.800000       0.006400
      349.900000       0.006500
      350.000000       0.006700
      350.100000       0.006900
      350.200000       0.007000
      350.300000       0.007200
      350.400000       0.007300
      350.500000       0.007500
      350.600000       0.007700
      350.700000       0.007900
      350.800000       0.008200
      350.900000       0.008400
      351.000000       0.008600
      351.100000       0.008800
      351.200000       0.009000
      351.300000       0.009200
      351.400000       0.009400
      351.500000       0.009700
      351.600000       0.009900
      351.700000       0.010100
      351.800000       0.010300
      351.900000       0.010500
      352.000000       0.010700
      352.100000       0.011000
      352.200000       0.011300
      352.300000       0.011500
      352.400000       0.011800
      352.500000       0.012100
      352.600000       0.012400
      352.700000       0.012800
      352.800000       0.013200
      352.900000       0.013600
      353.000000       0.013900
      353.100000       0.014300
      353.200000       0.014600
      353.300000       0.014900
      353.400000       0.015200
      353.500000       0.015500
      353.600000       0.015900
      353.700000       0.016300
      353.800000       0.016700
      353.900000       0.017100
      354.000000       0.017400
      354.100000       0.017900
      354.200000       0.018400
      354.300000       0.018900
      354.400000       0.019400
      354.500000       0.019800
      354.600000       0.020400
      354.700000       0.020900
      354.800000       0.021400
      354.900000       0.022000
      355.000000       0.022500
      355.100000       0.023100
      355.200000       0.023600
      355.300000       0.024100
      355.400000       0.024700
      355.500000       0.025200
      355.600000       0.026100
      355.700000       0.026900
      355.800000       0.027800
      355.900000       0.028600
      356.000000       0.029500
      356.100000       0.030000
      356.200000       0.030600
      356.300000       0.031100
      356.400000       0.031600
      356.500000       0.032200
      356.600000       0.033200
      356.700000       0.034300
      356.800000       0.035400
      356.900000       0.036500
      357.000000       0.037500
      357.100000       0.038600
      357.200000       0.039700
      357.300000       0.040800
      357.400000       0.041800
      357.500000       0.042900
      357.600000       0.043400
      357.700000       0.044000
      357.800000       0.044500
      357.900000       0.045000
      358.000000       0.045600
      358.100000       0.048300
      358.200000       0.050900
      358.300000       0.053600
      358.400000       0.056300
      358.500000       0.059000
      358.600000       0.059000
      358.700000       0.059000
      358.800000       0.059000
      358.900000       0.059000
      359.000000       0.059000
      359.100000       0.059500
      359.200000       0.060100
      359.300000       0.060600
      359.400000       0.061100
      359.500000       0.061700
      359.600000       0.062700
      359.700000       0.063800
      359.800000       0.064900
      359.900000       0.066000
      360.000000       0.067000
      360.100000       0.068100
      360.200000       0.069200
      360.300000       0.070200
      360.400000       0.071300
      360.500000       0.072400
      360.600000       0.075100
      360.700000       0.077700
      360.800000       0.080400
      360.900000       0.083100
      361.000000       0.085800
      361.100000       0.089000
      361.200000       0.092200
      361.300000       0.095400
      361.400000       0.098700
      361.500000       0.101900
      361.600000       0.105100
      361.700000       0.108300
      361.800000       0.111500
      361.900000       0.114700
      362.000000       0.118000
      362.100000       0.122300
      362.200000       0.126500
      362.300000       0.130800
      362.400000       0.135100
      362.500000       0.139400
      362.600000       0.143700
      362.700000       0.148000
      362.800000       0.152300
      362.900000       0.156600
      363.000000       0.160900
      363.100000       0.164600
      363.200000       0.168400
      363.300000       0.172100
      363.400000       0.175900
      363.500000       0.179600
      363.600000       0.185500
      363.700000       0.191400
      363.800000       0.197300
      363.900000       0.203200
      364.000000       0.209100
      364.100000       0.216600
      364.200000       0.224100
      364.300000       0.231600
      364.400000       0.239100
      364.500000       0.246600
      364.600000       0.254700
      364.700000       0.262700
      364.800000       0.270800
      364.900000       0.278800
      365.000000       0.286900
      365.100000       0.295400
      365.200000       0.304000
      365.300000       0.312600
      365.400000       0.321200
      365.500000       0.329800
      365.600000       0.338300
      365.700000       0.346900
      365.800000       0.355500
      365.900000       0.364100
      366.000000       0.372700
      366.100000       0.381200
      366.200000       0.389800
      366.300000       0.398400
      366.400000       0.407000
      366.500000       0.415500
      366.600000       0.426800
      366.700000       0.438100
      366.800000       0.449300
      366.900000       0.460600
      367.000000       0.471800
      367.100000       0.483600
      367.200000       0.495400
      367.300000       0.507200
      367.400000       0.519000
      367.500000       0.530800
      367.600000       0.542600
      367.700000       0.554400
      367.800000       0.566200
      367.900000       0.578000
      368.000000       0.589800
      368.100000       0.600000
      368.200000       0.610200
      368.300000       0.620400
      368.400000       0.630600
      368.500000       0.640800
      368.600000       0.657400
      368.700000       0.674000
      368.800000       0.690600
      368.900000       0.707200
      369.000000       0.723900
      369.100000       0.733500
      369.200000       0.743200
      369.300000       0.752800
      369.400000       0.762500
      369.500000       0.772100
      369.600000       0.780700
      369.700000       0.789300
      369.800000       0.797900
      369.900000       0.806400
      370.000000       0.815000
      370.100000       0.822500
      370.200000       0.830000
      370.300000       0.837500
      370.400000       0.845000
      370.500000       0.852500
      370.600000       0.861700
      370.700000       0.870800
      370.800000       0.879900
      370.900000       0.889000
      371.000000       0.898100
      371.100000       0.905600
      371.200000       0.913100
      371.300000       0.920600
      371.400000       0.928200
      371.500000       0.935700
      371.600000       0.942600
      371.700000       0.949600
      371.800000       0.956600
      371.900000       0.963500
      372.000000       0.970500
      372.100000       0.974300
      372.200000       0.978000
      372.300000       0.981800
      372.400000       0.985500
      372.500000       0.989300
      372.600000       0.991400
      372.700000       0.993600
      372.800000       0.995700
      372.900000       0.997900
      373.000000       1.000000
      373.100000       0.999500
      373.200000       0.998900
      373.300000       0.998400
      373.400000       0.997900
      373.500000       0.997300
      373.600000       0.994600
      373.700000       0.992000
      373.800000       0.989300
      373.900000       0.986600
      374.000000       0.983900
      374.100000       0.980200
      374.200000       0.976400
      374.300000       0.972700
      374.400000       0.968900
      374.500000       0.965100
      374.600000       0.959800
      374.700000       0.954400
      374.800000       0.949100
      374.900000       0.943700
      375.000000       0.938300
      375.100000       0.928700
      375.200000       0.919000
      375.300000       0.909400
      375.400000       0.899700
      375.500000       0.890100
      375.600000       0.878300
      375.700000       0.866500
      375.800000       0.854700
      375.900000       0.842900
      376.000000       0.831100
      376.100000       0.818800
      376.200000       0.806400
      376.300000       0.794100
      376.400000       0.781800
      376.500000       0.769400
      376.600000       0.755500
      376.700000       0.741600
      376.800000       0.727600
      376.900000       0.713700
      377.000000       0.699700
      377.100000       0.685300
      377.200000       0.670800
      377.300000       0.656300
      377.400000       0.641800
      377.500000       0.627300
      377.600000       0.613400
      377.700000       0.599500
      377.800000       0.585500
      377.900000       0.571600
      378.000000       0.557600
      378.100000       0.545300
      378.200000       0.533000
      378.300000       0.520600
      378.400000       0.508300
      378.500000       0.496000
      378.600000       0.481500
      378.700000       0.467000
      378.800000       0.452500
      378.900000       0.438100
      379.000000       0.423600
      379.100000       0.412900
      379.200000       0.402100
      379.300000       0.391400
      379.400000       0.380700
      379.500000       0.370000
      379.600000       0.360300
      379.700000       0.350700
      379.800000       0.341000
      379.900000       0.331400
      380.000000       0.321700
      380.100000       0.312600
      380.200000       0.303500
      380.300000       0.294400
      380.400000       0.285300
      380.500000       0.276100
      380.600000       0.267600
      380.700000       0.259000
      380.800000       0.250400
      380.900000       0.241800
      381.000000       0.233200
      381.100000       0.225700
      381.200000       0.218200
      381.300000       0.210700
      381.400000       0.203200
      381.500000       0.195700
      381.600000       0.191400
      381.700000       0.187100
      381.800000       0.182800
      381.900000       0.178600
      382.000000       0.174300
      382.100000       0.169400
      382.200000       0.164600
      382.300000       0.159800
      382.400000       0.155000
      382.500000       0.150100
      382.600000       0.146900
      382.700000       0.143700
      382.800000       0.140500
      382.900000       0.137300
      383.000000       0.134000
      383.100000       0.130800
      383.200000       0.127600
      383.300000       0.124400
      383.400000       0.121200
      383.500000       0.118000
      383.600000       0.114700
      383.700000       0.111500
      383.800000       0.108300
      383.900000       0.105100
      384.000000       0.101900
      384.100000       0.099700
      384.200000       0.097600
      384.300000       0.095400
      384.400000       0.093300
      384.500000       0.091200
      384.600000       0.089000
      384.700000       0.086900
      384.800000       0.084700
      384.900000       0.082600
      385.000000       0.080400
      385.100000       0.078300
      385.200000       0.076100
      385.300000       0.074000
      385.400000       0.071800
      385.500000       0.069700
      385.600000       0.067600
      385.700000       0.065400
      385.800000       0.063300
      385.900000       0.061100
      386.000000       0.059000
      386.100000       0.057400
      386.200000       0.055800
      386.300000       0.054200
      386.400000       0.052500
      386.500000       0.050900
      386.600000       0.049900
      386.700000       0.048800
      386.800000       0.047700
      386.900000       0.046600
      387.000000       0.045600
      387.100000       0.044000
      387.200000       0.042400
      387.300000       0.040800
      387.400000       0.039100
      387.500000       0.037500
      387.600000       0.037000
      387.700000       0.036500
      387.800000       0.035900
      387.900000       0.035400
      388.000000       0.034900
      388.100000       0.034300
      388.200000       0.033800
      388.300000       0.033200
      388.400000       0.032700
      388.500000       0.032200
      388.600000       0.031600
      388.700000       0.031100
      388.800000       0.030600
      388.900000       0.030000
      389.000000       0.029500
      389.100000       0.028700
      389.200000       0.027900
      389.300000       0.027100
      389.400000       0.026300
      389.500000       0.025500
      389.600000       0.025000
      389.700000       0.024500
      389.800000       0.024000
      389.900000       0.023500
      390.000000       0.023100
      390.100000       0.022600
      390.200000       0.022100
      390.300000       0.021600
      390.400000       0.021100
      390.500000       0.020600
      390.600000       0.020200
      390.700000       0.019800
      390.800000       0.019400
      390.900000       0.018900
      391.000000       0.018500
      391.100000       0.018100
      391.200000       0.017700
      391.300000       0.017400
      391.400000       0.017000
      391.500000       0.016600
      391.600000       0.016300
      391.700000       0.016000
      391.800000       0.015700
      391.900000       0.015300
      392.000000       0.015000
      392.100000       0.014700
      392.200000       0.014400
      392.300000       0.014000
      392.400000       0.013700
      392.500000       0.013400
      392.600000       0.013100
      392.700000       0.012900
      392.800000       0.012600
      392.900000       0.012300
      393.000000       0.012100
      393.100000       0.011800
      393.200000       0.011500
      393.300000       0.011300
      393.400000       0.011000
      393.500000       0.010700
      393.600000       0.010500
      393.700000       0.010300
      393.800000       0.010100
      393.900000       0.009900
      394.000000       0.009700
      394.100000       0.009400
      394.200000       0.009200
      394.300000       0.009000
      394.400000       0.008800
      394.500000       0.008600
      394.600000       0.008200
      394.700000       0.007700
      394.800000       0.007300
      394.900000       0.006900
      395.000000       0.006400
      395.100000       0.006500
      395.200000       0.006600
      395.300000       0.006800
      395.400000       0.006900
      395.500000       0.007000
      395.600000       0.006800
      395.700000       0.006600
      395.800000       0.006500
      395.900000       0.006300
      396.000000       0.006200
      396.100000       0.006100
      396.200000       0.006000
      396.300000       0.005800
      396.400000       0.005700
      396.500000       0.005600
      396.600000       0.005500
      396.700000       0.005400
      396.800000       0.005300
      396.900000       0.005200
      397.000000       0.005100
      397.100000       0.005000
      397.200000       0.004900
      397.300000       0.004800
      397.400000       0.004700
      397.500000       0.004600
      397.600000       0.004500
      397.700000       0.004300
      397.800000       0.004200
      397.900000       0.004100
      398.000000       0.004000
      398.100000       0.004000
      398.200000       0.003900
      398.300000       0.003900
      398.400000       0.003800
      398.500000       0.003800
      398.600000       0.003600
      398.700000       0.003500
      398.800000       0.003400
      398.900000       0.003300
      399.000000       0.003200
      399.100000       0.003200
      399.200000       0.003100
      399.300000       0.003100
      399.400000       0.003000
      399.500000       0.002900
      399.600000       0.002900
      399.700000       0.002800
      399.800000       0.002800
      399.900000       0.002700
      400.000000       0.002700
