05 , goes_11_sounder_05.flt
Number of data points:
331
Wavenumber (cm-1)   Filter response
      731.400000       0.001829
      731.500000       0.002204
      731.600000       0.002594
      731.700000       0.002994
      731.800000       0.003399
      731.900000       0.003810
      732.000000       0.004230
      732.100000       0.004651
      732.200000       0.005073
      732.300000       0.005506
      732.400000       0.005942
      732.500000       0.006376
      732.600000       0.006814
      732.700000       0.007259
      732.800000       0.007704
      732.900000       0.008151
      733.000000       0.008606
      733.100000       0.009059
      733.200000       0.009520
      733.300000       0.009993
      733.400000       0.010464
      733.500000       0.010931
      733.600000       0.011422
      733.700000       0.011917
      733.800000       0.012409
      733.900000       0.012930
      734.000000       0.013475
      734.100000       0.014027
      734.200000       0.014598
      734.300000       0.015230
      734.400000       0.015923
      734.500000       0.016663
      734.600000       0.017504
      734.700000       0.018488
      734.800000       0.019601
      734.900000       0.020809
      735.000000       0.022187
      735.100000       0.023804
      735.200000       0.025674
      735.300000       0.027866
      735.400000       0.030299
      735.500000       0.032881
      735.600000       0.035639
      735.700000       0.038504
      735.800000       0.041365
      735.900000       0.044292
      736.000000       0.047291
      736.100000       0.050352
      736.200000       0.053380
      736.300000       0.056559
      736.400000       0.059884
      736.500000       0.063278
      736.600000       0.066970
      736.700000       0.070974
      736.800000       0.075267
      736.900000       0.079896
      737.000000       0.085064
      737.100000       0.090768
      737.200000       0.097142
      737.300000       0.104450
      737.400000       0.112787
      737.500000       0.121970
      737.600000       0.131931
      737.700000       0.142003
      737.800000       0.151387
      737.900000       0.159965
      738.000000       0.168239
      738.100000       0.176647
      738.200000       0.185447
      738.300000       0.195258
      738.400000       0.206383
      738.500000       0.218943
      738.600000       0.232949
      738.700000       0.247587
      738.800000       0.262163
      738.900000       0.276313
      739.000000       0.289946
      739.100000       0.303483
      739.200000       0.317375
      739.300000       0.332665
      739.400000       0.349433
      739.500000       0.367183
      739.600000       0.385922
      739.700000       0.405497
      739.800000       0.425219
      739.900000       0.444371
      740.000000       0.462365
      740.100000       0.479713
      740.200000       0.496429
      740.300000       0.513368
      740.400000       0.529898
      740.500000       0.545855
      740.600000       0.562602
      740.700000       0.579160
      740.800000       0.594991
      740.900000       0.611250
      741.000000       0.628961
      741.100000       0.647885
      741.200000       0.668007
      741.300000       0.688876
      741.400000       0.708979
      741.500000       0.727175
      741.600000       0.744224
      741.700000       0.759744
      741.800000       0.773737
      741.900000       0.786810
      742.000000       0.799225
      742.100000       0.810922
      742.200000       0.822325
      742.300000       0.833796
      742.400000       0.844466
      742.500000       0.854936
      742.600000       0.866189
      742.700000       0.877002
      742.800000       0.886918
      742.900000       0.896361
      743.000000       0.905268
      743.100000       0.913303
      743.200000       0.920157
      743.300000       0.926032
      743.400000       0.930869
      743.500000       0.934474
      743.600000       0.937634
      743.700000       0.941398
      743.800000       0.945018
      743.900000       0.947796
      744.000000       0.950612
      744.100000       0.953452
      744.200000       0.955710
      744.300000       0.957418
      744.400000       0.958612
      744.500000       0.959329
      744.600000       0.959805
      744.700000       0.960169
      744.800000       0.960027
      744.900000       0.959553
      745.000000       0.959710
      745.100000       0.960492
      745.200000       0.961473
      745.300000       0.962457
      745.400000       0.963227
      745.500000       0.963659
      745.600000       0.963719
      745.700000       0.963494
      745.800000       0.963082
      745.900000       0.962632
      746.000000       0.962190
      746.100000       0.961849
      746.200000       0.961634
      746.300000       0.961373
      746.400000       0.961432
      746.500000       0.962045
      746.600000       0.962329
      746.700000       0.962023
      746.800000       0.961698
      746.900000       0.961411
      747.000000       0.961100
      747.100000       0.960594
      747.200000       0.960417
      747.300000       0.961354
      747.400000       0.962385
      747.500000       0.962898
      747.600000       0.963589
      747.700000       0.964265
      747.800000       0.964462
      747.900000       0.965078
      748.000000       0.966287
      748.100000       0.967169
      748.200000       0.967894
      748.300000       0.968907
      748.400000       0.970108
      748.500000       0.971439
      748.600000       0.972972
      748.700000       0.974614
      748.800000       0.976296
      748.900000       0.978136
      749.000000       0.980126
      749.100000       0.982103
      749.200000       0.983985
      749.300000       0.985602
      749.400000       0.986443
      749.500000       0.987209
      749.600000       0.988771
      749.700000       0.990249
      749.800000       0.991704
      749.900000       0.994005
      750.000000       0.996208
      750.100000       0.997265
      750.200000       0.997630
      750.300000       0.997839
      750.400000       0.998167
      750.500000       0.998337
      750.600000       0.998340
      750.700000       0.998642
      750.800000       0.998978
      750.900000       0.998997
      751.000000       0.999478
      751.100000       1.000000
      751.200000       0.998573
      751.300000       0.995104
      751.400000       0.990320
      751.500000       0.984669
      751.600000       0.978172
      751.700000       0.970970
      751.800000       0.963910
      751.900000       0.956808
      752.000000       0.948797
      752.100000       0.939177
      752.200000       0.927686
      752.300000       0.914336
      752.400000       0.899736
      752.500000       0.884336
      752.600000       0.868055
      752.700000       0.851865
      752.800000       0.836090
      752.900000       0.820913
      753.000000       0.806702
      753.100000       0.792326
      753.200000       0.776752
      753.300000       0.759020
      753.400000       0.739326
      753.500000       0.718732
      753.600000       0.697011
      753.700000       0.675383
      753.800000       0.654647
      753.900000       0.634208
      754.000000       0.613254
      754.100000       0.591607
      754.200000       0.569392
      754.300000       0.545703
      754.400000       0.522166
      754.500000       0.500048
      754.600000       0.478362
      754.700000       0.456989
      754.800000       0.436048
      754.900000       0.415626
      755.000000       0.395256
      755.100000       0.375255
      755.200000       0.355831
      755.300000       0.337068
      755.400000       0.319071
      755.500000       0.301844
      755.600000       0.285176
      755.700000       0.268891
      755.800000       0.253319
      755.900000       0.238308
      756.000000       0.223789
      756.100000       0.209905
      756.200000       0.196818
      756.300000       0.183990
      756.400000       0.171836
      756.500000       0.160605
      756.600000       0.149703
      756.700000       0.139430
      756.800000       0.129897
      756.900000       0.120851
      757.000000       0.112172
      757.100000       0.103972
      757.200000       0.096403
      757.300000       0.089230
      757.400000       0.082697
      757.500000       0.076957
      757.600000       0.071939
      757.700000       0.067531
      757.800000       0.063705
      757.900000       0.060279
      758.000000       0.057165
      758.100000       0.054315
      758.200000       0.051745
      758.300000       0.049267
      758.400000       0.046864
      758.500000       0.044561
      758.600000       0.042300
      758.700000       0.040060
      758.800000       0.037847
      758.900000       0.035652
      759.000000       0.033388
      759.100000       0.031133
      759.200000       0.028953
      759.300000       0.026861
      759.400000       0.024965
      759.500000       0.023316
      759.600000       0.021880
      759.700000       0.020623
      759.800000       0.019559
      759.900000       0.018644
      760.000000       0.017810
      760.100000       0.017051
      760.200000       0.016386
      760.300000       0.015762
      760.400000       0.015162
      760.500000       0.014591
      760.600000       0.014024
      760.700000       0.013457
      760.800000       0.012879
      760.900000       0.012288
      761.000000       0.011684
      761.100000       0.011076
      761.200000       0.010477
      761.300000       0.009870
      761.400000       0.009268
      761.500000       0.008676
      761.600000       0.008085
      761.700000       0.007494
      761.800000       0.006919
      761.900000       0.006359
      762.000000       0.005816
      762.100000       0.005293
      762.200000       0.004803
      762.300000       0.004334
      762.400000       0.003900
      762.500000       0.003501
      762.600000       0.003124
      762.700000       0.002764
      762.800000       0.002427
      762.900000       0.002109
      763.000000       0.001803
      763.100000       0.001513
      763.200000       0.001239
      763.300000       0.000975
      763.400000       0.000725
      763.500000       0.000489
      763.600000       0.000269
      763.700000       0.000060
      763.800000       0.000000
      763.900000       0.000000
      764.000000       0.000000
      764.100000       0.000000
      764.200000       0.000000
      764.300000       0.000013
      764.400000       0.000259
