6, INSAT-3DR Sounder  LWIR-6
Number of data points:
65
Wavenumber (cm-1)   Filter response
      762.776500       0.000000
      763.650200       0.020000
      764.526000       0.030000
      765.403800       0.048100
      766.283500       0.051000
      767.165300       0.068000
      768.049200       0.098300
      768.935000       0.103400
      769.822900       0.121100
      770.712900       0.152200
      771.604900       0.182500
      772.499000       0.233300
      773.395200       0.272900
      774.293500       0.317200
      775.193800       0.407800
      776.096200       0.496500
      777.000800       0.553600
      777.907400       0.638900
      778.816200       0.715300
      779.727100       0.791100
      780.640100       0.845800
      781.555300       0.912600
      782.472600       0.936000
      783.392100       0.974200
      784.313700       0.976400
      785.237500       0.993800
      786.163500       0.996300
      787.091700       0.996700
      788.022100       0.991800
      788.954600       0.996300
      789.889400       1.000000
      790.826400       0.987600
      791.765600       0.965200
      792.707100       0.983300
      793.650800       0.971500
      794.596700       0.975300
      795.544900       0.980800
      796.495400       0.977300
      797.448200       0.980200
      798.403200       0.972600
      799.360500       0.966100
      800.320100       0.926600
      801.282100       0.892000
      802.246300       0.839700
      803.212900       0.787400
      804.181700       0.719200
      805.153000       0.627200
      806.126600       0.548200
      807.102500       0.459900
      808.080800       0.382600
      809.061500       0.312800
      810.044600       0.255100
      811.030000       0.195200
      812.017900       0.163900
      813.008100       0.108100
      814.000800       0.120500
      814.995900       0.082400
      815.993500       0.068800
      816.993500       0.068700
      817.995900       0.055000
      819.000800       0.052600
      820.008200       0.048300
      821.018100       0.040000
      822.030400       0.020000
      823.045300       0.000000
