6,    channel 6 SRF extracted from SRF_FY4B_AGRI.zip (FY4B_AGRI_SRF_CH6_Pub.txt)
Number of data points:
6047
Wavenumber (cm-1)   Filter response
     4000.000000       0.006600
     4000.160000       0.006800
     4000.320000       0.006900
     4000.480100       0.006900
     4000.640100       0.006900
     4000.800200       0.006900
     4000.960200       0.006900
     4001.120300       0.006900
     4001.280400       0.006800
     4001.440500       0.006700
     4001.600600       0.006700
     4001.760800       0.006600
     4001.920900       0.006600
     4002.081100       0.006600
     4002.241300       0.006600
     4002.401400       0.006600
     4002.561600       0.006700
     4002.721900       0.006700
     4002.882100       0.006700
     4003.042300       0.006800
     4003.202600       0.006800
     4003.362800       0.006900
     4003.523100       0.007000
     4003.683400       0.007000
     4003.843700       0.007100
     4004.004000       0.007100
     4004.164300       0.007200
     4004.324700       0.007200
     4004.485000       0.007200
     4004.645400       0.007100
     4004.805800       0.007100
     4004.966200       0.007000
     4005.126600       0.006900
     4005.287000       0.006800
     4005.447400       0.006700
     4005.607900       0.006600
     4005.768300       0.006400
     4005.928800       0.006300
     4006.089300       0.006300
     4006.249700       0.006200
     4006.410300       0.006200
     4006.570800       0.006200
     4006.731300       0.006300
     4006.891900       0.006400
     4007.052400       0.006500
     4007.213000       0.006600
     4007.373600       0.006800
     4007.534200       0.007000
     4007.694800       0.007100
     4007.855400       0.007300
     4008.016000       0.007400
     4008.176700       0.007600
     4008.337300       0.007700
     4008.498000       0.007800
     4008.658700       0.007900
     4008.819400       0.007900
     4008.980100       0.007800
     4009.140800       0.007800
     4009.301600       0.007600
     4009.462300       0.007400
     4009.623100       0.007200
     4009.783900       0.006800
     4009.944700       0.006400
     4010.105500       0.006000
     4010.266300       0.005600
     4010.427100       0.005100
     4010.588000       0.004700
     4010.748800       0.004400
     4010.909700       0.004100
     4011.070600       0.003900
     4011.231400       0.003900
     4011.392400       0.003900
     4011.553300       0.004100
     4011.714200       0.004400
     4011.875200       0.004800
     4012.036100       0.005200
     4012.197100       0.005600
     4012.358100       0.006100
     4012.519100       0.006500
     4012.680100       0.007000
     4012.841100       0.007300
     4013.002100       0.007700
     4013.163200       0.007900
     4013.324200       0.008100
     4013.485300       0.008300
     4013.646400       0.008400
     4013.807500       0.008400
     4013.968600       0.008400
     4014.129700       0.008400
     4014.290900       0.008300
     4014.452000       0.008200
     4014.613200       0.008100
     4014.774400       0.007900
     4014.935600       0.007800
     4015.096800       0.007600
     4015.258000       0.007500
     4015.419200       0.007400
     4015.580500       0.007300
     4015.741700       0.007200
     4015.903000       0.007200
     4016.064300       0.007200
     4016.225600       0.007300
     4016.386900       0.007400
     4016.548200       0.007600
     4016.709500       0.007800
     4016.870900       0.008000
     4017.032200       0.008200
     4017.193600       0.008400
     4017.355000       0.008500
     4017.516400       0.008700
     4017.677800       0.008700
     4017.839200       0.008700
     4018.000600       0.008700
     4018.162100       0.008600
     4018.323600       0.008500
     4018.485000       0.008400
     4018.646500       0.008200
     4018.808000       0.008100
     4018.969500       0.008100
     4019.131100       0.008000
     4019.292600       0.008100
     4019.454200       0.008200
     4019.615700       0.008300
     4019.777300       0.008500
     4019.938900       0.008700
     4020.100500       0.008900
     4020.262100       0.009000
     4020.423800       0.009100
     4020.585400       0.009200
     4020.747100       0.009200
     4020.908700       0.009100
     4021.070400       0.008900
     4021.232100       0.008500
     4021.393800       0.008200
     4021.555500       0.007800
     4021.717300       0.007400
     4021.879000       0.007000
     4022.040800       0.006600
     4022.202600       0.006400
     4022.364300       0.006200
     4022.526100       0.006200
     4022.688000       0.006400
     4022.849800       0.006600
     4023.011600       0.007000
     4023.173500       0.007500
     4023.335300       0.008000
     4023.497200       0.008500
     4023.659100       0.009000
     4023.821000       0.009500
     4023.982900       0.009900
     4024.144900       0.010200
     4024.306800       0.010400
     4024.468800       0.010400
     4024.630700       0.010400
     4024.792700       0.010300
     4024.954700       0.010200
     4025.116700       0.010000
     4025.278800       0.009800
     4025.440800       0.009600
     4025.602800       0.009500
     4025.764900       0.009400
     4025.927000       0.009300
     4026.089100       0.009400
     4026.251200       0.009400
     4026.413300       0.009500
     4026.575400       0.009600
     4026.737500       0.009600
     4026.899700       0.009700
     4027.061900       0.009700
     4027.224000       0.009700
     4027.386200       0.009600
     4027.548400       0.009500
     4027.710600       0.009300
     4027.872900       0.009000
     4028.035100       0.008700
     4028.197400       0.008500
     4028.359700       0.008300
     4028.521900       0.008100
     4028.684200       0.008000
     4028.846500       0.007900
     4029.008900       0.008000
     4029.171200       0.008200
     4029.333500       0.008500
     4029.495900       0.008900
     4029.658300       0.009400
     4029.820700       0.009900
     4029.983100       0.010400
     4030.145500       0.010800
     4030.307900       0.011200
     4030.470400       0.011600
     4030.632800       0.011800
     4030.795300       0.012000
     4030.957800       0.012000
     4031.120200       0.012000
     4031.282800       0.011900
     4031.445300       0.011700
     4031.607800       0.011500
     4031.770400       0.011300
     4031.932900       0.011100
     4032.095500       0.010900
     4032.258100       0.010700
     4032.420700       0.010600
     4032.583300       0.010600
     4032.745900       0.010500
     4032.908500       0.010600
     4033.071200       0.010600
     4033.233800       0.010700
     4033.396500       0.010800
     4033.559200       0.010900
     4033.721900       0.011000
     4033.884600       0.011100
     4034.047400       0.011200
     4034.210100       0.011300
     4034.372900       0.011300
     4034.535600       0.011400
     4034.698400       0.011500
     4034.861200       0.011500
     4035.024000       0.011600
     4035.186800       0.011600
     4035.349700       0.011700
     4035.512500       0.011700
     4035.675400       0.011800
     4035.838200       0.011900
     4036.001100       0.011900
     4036.164000       0.012000
     4036.326900       0.012100
     4036.489900       0.012200
     4036.652800       0.012200
     4036.815800       0.012300
     4036.978700       0.012400
     4037.141700       0.012400
     4037.304700       0.012500
     4037.467700       0.012500
     4037.630700       0.012600
     4037.793700       0.012600
     4037.956800       0.012700
     4038.119900       0.012700
     4038.282900       0.012800
     4038.446000       0.012800
     4038.609100       0.012900
     4038.772200       0.012900
     4038.935300       0.013000
     4039.098500       0.013000
     4039.261600       0.013100
     4039.424800       0.013200
     4039.588000       0.013200
     4039.751200       0.013300
     4039.914400       0.013400
     4040.077600       0.013400
     4040.240800       0.013500
     4040.404000       0.013500
     4040.567300       0.013500
     4040.730600       0.013500
     4040.893800       0.013500
     4041.057100       0.013500
     4041.220400       0.013600
     4041.383800       0.013600
     4041.547100       0.013600
     4041.710500       0.013600
     4041.873800       0.013600
     4042.037200       0.013600
     4042.200600       0.013600
     4042.364000       0.013700
     4042.527400       0.013700
     4042.690800       0.013800
     4042.854300       0.013900
     4043.017700       0.013900
     4043.181200       0.014000
     4043.344700       0.014100
     4043.508100       0.014200
     4043.671700       0.014300
     4043.835200       0.014400
     4043.998700       0.014500
     4044.162300       0.014600
     4044.325800       0.014700
     4044.489400       0.014700
     4044.653000       0.014700
     4044.816600       0.014700
     4044.980200       0.014700
     4045.143800       0.014600
     4045.307400       0.014500
     4045.471100       0.014300
     4045.634800       0.014000
     4045.798400       0.013700
     4045.962100       0.013400
     4046.125800       0.013100
     4046.289600       0.012800
     4046.453300       0.012400
     4046.617000       0.012100
     4046.780800       0.011800
     4046.944600       0.011500
     4047.108300       0.011300
     4047.272100       0.011100
     4047.435900       0.011000
     4047.599800       0.010900
     4047.763600       0.010800
     4047.927500       0.010800
     4048.091300       0.010900
     4048.255200       0.011100
     4048.419100       0.011300
     4048.583000       0.011500
     4048.746900       0.011900
     4048.910800       0.012200
     4049.074800       0.012700
     4049.238700       0.013100
     4049.402700       0.013600
     4049.566700       0.014100
     4049.730700       0.014600
     4049.894700       0.015000
     4050.058700       0.015400
     4050.222800       0.015800
     4050.386800       0.016100
     4050.550900       0.016300
     4050.715000       0.016500
     4050.879000       0.016700
     4051.043100       0.016800
     4051.207300       0.016900
     4051.371400       0.017000
     4051.535500       0.017000
     4051.699700       0.017100
     4051.863900       0.017100
     4052.028000       0.017100
     4052.192200       0.017200
     4052.356400       0.017200
     4052.520700       0.017200
     4052.684900       0.017300
     4052.849200       0.017300
     4053.013400       0.017400
     4053.177700       0.017400
     4053.342000       0.017400
     4053.506300       0.017400
     4053.670600       0.017500
     4053.834900       0.017500
     4053.999300       0.017500
     4054.163600       0.017500
     4054.328000       0.017500
     4054.492400       0.017500
     4054.656800       0.017500
     4054.821200       0.017500
     4054.985600       0.017500
     4055.150000       0.017600
     4055.314500       0.017600
     4055.479000       0.017600
     4055.643400       0.017600
     4055.807900       0.017700
     4055.972400       0.017700
     4056.136900       0.017800
     4056.301500       0.017900
     4056.466000       0.018000
     4056.630600       0.018200
     4056.795100       0.018300
     4056.959700       0.018500
     4057.124300       0.018700
     4057.288900       0.018900
     4057.453500       0.019100
     4057.618200       0.019300
     4057.782800       0.019500
     4057.947500       0.019600
     4058.112200       0.019800
     4058.276900       0.019800
     4058.441600       0.019800
     4058.606300       0.019800
     4058.771000       0.019700
     4058.935700       0.019600
     4059.100500       0.019500
     4059.265300       0.019400
     4059.430100       0.019300
     4059.594900       0.019200
     4059.759700       0.019100
     4059.924500       0.019200
     4060.089300       0.019300
     4060.254200       0.019400
     4060.419000       0.019700
     4060.583900       0.020000
     4060.748800       0.020300
     4060.913700       0.020600
     4061.078600       0.020800
     4061.243600       0.021100
     4061.408500       0.021200
     4061.573500       0.021200
     4061.738400       0.021100
     4061.903400       0.020900
     4062.068400       0.020500
     4062.233400       0.020000
     4062.398400       0.019500
     4062.563500       0.019000
     4062.728500       0.018500
     4062.893600       0.018100
     4063.058700       0.017800
     4063.223800       0.017600
     4063.388900       0.017500
     4063.554000       0.017700
     4063.719100       0.018000
     4063.884300       0.018400
     4064.049400       0.018900
     4064.214600       0.019500
     4064.379800       0.020100
     4064.545000       0.020700
     4064.710200       0.021300
     4064.875400       0.021800
     4065.040700       0.022200
     4065.205900       0.022400
     4065.371200       0.022500
     4065.536400       0.022600
     4065.701700       0.022500
     4065.867000       0.022400
     4066.032400       0.022300
     4066.197700       0.022200
     4066.363000       0.022100
     4066.528400       0.022000
     4066.693800       0.022000
     4066.859200       0.022200
     4067.024600       0.022300
     4067.190000       0.022600
     4067.355400       0.022800
     4067.520800       0.023100
     4067.686300       0.023500
     4067.851800       0.023800
     4068.017200       0.024000
     4068.182700       0.024200
     4068.348300       0.024400
     4068.513800       0.024500
     4068.679300       0.024500
     4068.844900       0.024500
     4069.010400       0.024400
     4069.176000       0.024300
     4069.341600       0.024200
     4069.507200       0.024100
     4069.672800       0.024100
     4069.838400       0.024000
     4070.004100       0.024000
     4070.169700       0.024100
     4070.335400       0.024200
     4070.501100       0.024400
     4070.666800       0.024600
     4070.832500       0.024800
     4070.998200       0.025000
     4071.163900       0.025200
     4071.329700       0.025400
     4071.495500       0.025600
     4071.661200       0.025700
     4071.827000       0.025800
     4071.992800       0.025800
     4072.158700       0.025800
     4072.324500       0.025800
     4072.490300       0.025700
     4072.656200       0.025600
     4072.822100       0.025600
     4072.987900       0.025500
     4073.153800       0.025400
     4073.319800       0.025300
     4073.485700       0.025300
     4073.651600       0.025300
     4073.817600       0.025300
     4073.983500       0.025300
     4074.149500       0.025300
     4074.315500       0.025300
     4074.481500       0.025300
     4074.647500       0.025200
     4074.813600       0.025200
     4074.979600       0.025100
     4075.145700       0.025000
     4075.311800       0.024900
     4075.477800       0.024700
     4075.644000       0.024600
     4075.810100       0.024400
     4075.976200       0.024200
     4076.142300       0.024100
     4076.308500       0.023900
     4076.474700       0.023800
     4076.640800       0.023600
     4076.807000       0.023600
     4076.973300       0.023500
     4077.139500       0.023500
     4077.305700       0.023500
     4077.472000       0.023500
     4077.638200       0.023600
     4077.804500       0.023700
     4077.970800       0.023800
     4078.137100       0.023900
     4078.303400       0.024100
     4078.469800       0.024400
     4078.636100       0.024600
     4078.802500       0.024900
     4078.968800       0.025100
     4079.135200       0.025400
     4079.301600       0.025600
     4079.468000       0.025800
     4079.634500       0.026000
     4079.800900       0.026100
     4079.967400       0.026200
     4080.133800       0.026200
     4080.300300       0.026100
     4080.466800       0.026000
     4080.633300       0.025800
     4080.799800       0.025700
     4080.966400       0.025500
     4081.132900       0.025300
     4081.299500       0.025100
     4081.466100       0.024900
     4081.632700       0.024700
     4081.799300       0.024600
     4081.965900       0.024500
     4082.132500       0.024400
     4082.299200       0.024400
     4082.465800       0.024300
     4082.632500       0.024300
     4082.799200       0.024200
     4082.965900       0.024200
     4083.132600       0.024100
     4083.299300       0.024000
     4083.466000       0.023900
     4083.632800       0.023800
     4083.799600       0.023700
     4083.966300       0.023500
     4084.133100       0.023500
     4084.300000       0.023400
     4084.466800       0.023500
     4084.633600       0.023600
     4084.800500       0.023700
     4084.967300       0.024000
     4085.134200       0.024400
     4085.301100       0.024900
     4085.468000       0.025400
     4085.634900       0.025900
     4085.801800       0.026500
     4085.968800       0.027000
     4086.135700       0.027500
     4086.302700       0.027900
     4086.469700       0.028200
     4086.636700       0.028400
     4086.803700       0.028400
     4086.970700       0.028300
     4087.137800       0.028100
     4087.304800       0.027800
     4087.471900       0.027500
     4087.639000       0.027200
     4087.806100       0.027000
     4087.973200       0.026700
     4088.140300       0.026600
     4088.307400       0.026600
     4088.474600       0.026700
     4088.641800       0.027000
     4088.808900       0.027300
     4088.976100       0.027700
     4089.143300       0.028100
     4089.310500       0.028500
     4089.477800       0.028800
     4089.645000       0.029100
     4089.812300       0.029200
     4089.979600       0.029200
     4090.146800       0.029000
     4090.314100       0.028700
     4090.481400       0.028300
     4090.648800       0.027800
     4090.816100       0.027200
     4090.983500       0.026700
     4091.150800       0.026300
     4091.318200       0.025900
     4091.485600       0.025700
     4091.653000       0.025600
     4091.820500       0.025700
     4091.987900       0.026000
     4092.155300       0.026500
     4092.322800       0.027000
     4092.490300       0.027700
     4092.657800       0.028300
     4092.825300       0.029000
     4092.992800       0.029700
     4093.160300       0.030300
     4093.327900       0.030900
     4093.495400       0.031300
     4093.663000       0.031700
     4093.830600       0.031900
     4093.998200       0.032100
     4094.165800       0.032200
     4094.333400       0.032200
     4094.501100       0.032100
     4094.668700       0.032000
     4094.836400       0.031900
     4095.004100       0.031800
     4095.171800       0.031600
     4095.339500       0.031400
     4095.507200       0.031200
     4095.675000       0.031100
     4095.842700       0.030900
     4096.010500       0.030800
     4096.178300       0.030800
     4096.346100       0.030800
     4096.513900       0.030900
     4096.681700       0.031100
     4096.849500       0.031300
     4097.017400       0.031700
     4097.185200       0.032100
     4097.353100       0.032500
     4097.521000       0.032900
     4097.688900       0.033300
     4097.856800       0.033700
     4098.024800       0.034000
     4098.192700       0.034300
     4098.360700       0.034400
     4098.528600       0.034400
     4098.696600       0.034300
     4098.864600       0.034200
     4099.032600       0.034000
     4099.200700       0.033800
     4099.368700       0.033600
     4099.536800       0.033400
     4099.704800       0.033200
     4099.872900       0.033200
     4100.041000       0.033200
     4100.209100       0.033400
     4100.377200       0.033600
     4100.545400       0.033900
     4100.713500       0.034300
     4100.881700       0.034700
     4101.049900       0.035100
     4101.218100       0.035500
     4101.386300       0.035800
     4101.554500       0.036000
     4101.722700       0.036200
     4101.891000       0.036200
     4102.059200       0.036200
     4102.227500       0.036000
     4102.395800       0.035800
     4102.564100       0.035600
     4102.732400       0.035400
     4102.900800       0.035200
     4103.069100       0.035000
     4103.237500       0.035000
     4103.405800       0.035000
     4103.574200       0.035100
     4103.742600       0.035300
     4103.911000       0.035600
     4104.079500       0.036000
     4104.247900       0.036400
     4104.416400       0.036800
     4104.584800       0.037100
     4104.753300       0.037400
     4104.921800       0.037700
     4105.090300       0.037800
     4105.258800       0.037800
     4105.427400       0.037800
     4105.595900       0.037600
     4105.764500       0.037300
     4105.933100       0.037000
     4106.101700       0.036700
     4106.270300       0.036300
     4106.438900       0.036000
     4106.607500       0.035600
     4106.776200       0.035300
     4106.944800       0.035000
     4107.113500       0.034800
     4107.282200       0.034500
     4107.450900       0.034300
     4107.619600       0.034200
     4107.788400       0.034000
     4107.957100       0.033900
     4108.125900       0.033800
     4108.294600       0.033700
     4108.463400       0.033500
     4108.632200       0.033400
     4108.801100       0.033300
     4108.969900       0.033200
     4109.138700       0.033100
     4109.307600       0.033100
     4109.476500       0.033200
     4109.645300       0.033300
     4109.814200       0.033500
     4109.983100       0.033800
     4110.152100       0.034200
     4110.321000       0.034800
     4110.490000       0.035400
     4110.658900       0.036200
     4110.827900       0.036900
     4110.996900       0.037700
     4111.165900       0.038500
     4111.335000       0.039200
     4111.504000       0.039800
     4111.673000       0.040400
     4111.842100       0.040800
     4112.011200       0.041100
     4112.180300       0.041200
     4112.349400       0.041300
     4112.518500       0.041200
     4112.687600       0.041100
     4112.856800       0.040900
     4113.026000       0.040800
     4113.195100       0.040600
     4113.364300       0.040500
     4113.533500       0.040400
     4113.702700       0.040400
     4113.872000       0.040400
     4114.041200       0.040500
     4114.210500       0.040700
     4114.379800       0.040900
     4114.549000       0.041200
     4114.718300       0.041500
     4114.887700       0.041800
     4115.057000       0.042100
     4115.226300       0.042500
     4115.395700       0.042800
     4115.565100       0.043100
     4115.734500       0.043500
     4115.903900       0.043800
     4116.073300       0.044000
     4116.242700       0.044300
     4116.412100       0.044500
     4116.581600       0.044600
     4116.751100       0.044700
     4116.920500       0.044700
     4117.090000       0.044600
     4117.259600       0.044500
     4117.429100       0.044400
     4117.598600       0.044200
     4117.768200       0.044100
     4117.937700       0.044000
     4118.107300       0.043900
     4118.276900       0.043900
     4118.446500       0.044000
     4118.616100       0.044200
     4118.785800       0.044600
     4118.955400       0.045000
     4119.125100       0.045500
     4119.294800       0.046100
     4119.464500       0.046600
     4119.634200       0.047200
     4119.803900       0.047600
     4119.973600       0.048000
     4120.143400       0.048300
     4120.313100       0.048400
     4120.482900       0.048400
     4120.652700       0.048200
     4120.822500       0.047900
     4120.992300       0.047600
     4121.162200       0.047200
     4121.332000       0.046800
     4121.501900       0.046400
     4121.671800       0.046200
     4121.841600       0.046000
     4122.011500       0.046000
     4122.181500       0.046200
     4122.351400       0.046600
     4122.521300       0.047000
     4122.691300       0.047500
     4122.861300       0.048100
     4123.031300       0.048700
     4123.201300       0.049200
     4123.371300       0.049700
     4123.541300       0.050100
     4123.711300       0.050300
     4123.881400       0.050300
     4124.051500       0.050200
     4124.221600       0.050000
     4124.391700       0.049700
     4124.561800       0.049300
     4124.731900       0.049000
     4124.902000       0.048700
     4125.072200       0.048500
     4125.242400       0.048500
     4125.412500       0.048600
     4125.582700       0.048800
     4125.752900       0.049300
     4125.923200       0.049800
     4126.093400       0.050400
     4126.263700       0.051100
     4126.433900       0.051700
     4126.604200       0.052400
     4126.774500       0.052900
     4126.944800       0.053300
     4127.115100       0.053500
     4127.285500       0.053500
     4127.455800       0.053300
     4127.626200       0.053100
     4127.796600       0.052700
     4127.967000       0.052300
     4128.137400       0.051800
     4128.307800       0.051400
     4128.478200       0.051100
     4128.648700       0.050800
     4128.819200       0.050700
     4128.989600       0.050800
     4129.160100       0.051100
     4129.330600       0.051500
     4129.501200       0.051900
     4129.671700       0.052500
     4129.842200       0.053000
     4130.012800       0.053600
     4130.183400       0.054200
     4130.354000       0.054700
     4130.524600       0.055100
     4130.695200       0.055400
     4130.865800       0.055600
     4131.036500       0.055700
     4131.207100       0.055700
     4131.377800       0.055700
     4131.548500       0.055700
     4131.719200       0.055700
     4131.889900       0.055700
     4132.060700       0.055700
     4132.231400       0.055800
     4132.402200       0.055900
     4132.572900       0.056100
     4132.743700       0.056300
     4132.914500       0.056600
     4133.085300       0.056900
     4133.256200       0.057300
     4133.427000       0.057700
     4133.597900       0.058100
     4133.768800       0.058500
     4133.939600       0.058900
     4134.110500       0.059300
     4134.281500       0.059600
     4134.452400       0.060000
     4134.623300       0.060200
     4134.794300       0.060400
     4134.965300       0.060600
     4135.136300       0.060600
     4135.307300       0.060400
     4135.478300       0.060200
     4135.649300       0.059800
     4135.820300       0.059200
     4135.991400       0.058500
     4136.162500       0.057700
     4136.333600       0.056900
     4136.504700       0.056000
     4136.675800       0.055300
     4136.846900       0.054700
     4137.018000       0.054200
     4137.189200       0.053900
     4137.360400       0.053900
     4137.531500       0.054200
     4137.702700       0.054700
     4137.874000       0.055500
     4138.045200       0.056400
     4138.216400       0.057300
     4138.387700       0.058400
     4138.559000       0.059400
     4138.730200       0.060400
     4138.901500       0.061300
     4139.072800       0.062000
     4139.244200       0.062600
     4139.415500       0.063000
     4139.586900       0.063200
     4139.758200       0.063300
     4139.929600       0.063300
     4140.101000       0.063200
     4140.272400       0.063000
     4140.443900       0.062800
     4140.615300       0.062600
     4140.786700       0.062500
     4140.958200       0.062300
     4141.129700       0.062200
     4141.301200       0.062100
     4141.472700       0.062000
     4141.644200       0.062000
     4141.815800       0.062000
     4141.987300       0.062100
     4142.158900       0.062200
     4142.330500       0.062300
     4142.502100       0.062400
     4142.673700       0.062600
     4142.845300       0.062800
     4143.016900       0.063000
     4143.188600       0.063300
     4143.360300       0.063600
     4143.531900       0.064000
     4143.703600       0.064400
     4143.875400       0.064800
     4144.047100       0.065300
     4144.218800       0.065800
     4144.390600       0.066400
     4144.562300       0.066900
     4144.734100       0.067500
     4144.905900       0.068100
     4145.077700       0.068700
     4145.249500       0.069200
     4145.421400       0.069700
     4145.593200       0.070000
     4145.765100       0.070300
     4145.937000       0.070500
     4146.108900       0.070500
     4146.280800       0.070400
     4146.452700       0.070300
     4146.624600       0.070100
     4146.796600       0.069900
     4146.968600       0.069700
     4147.140500       0.069600
     4147.312500       0.069500
     4147.484600       0.069500
     4147.656600       0.069700
     4147.828600       0.070000
     4148.000700       0.070400
     4148.172700       0.070900
     4148.344800       0.071500
     4148.516900       0.072100
     4148.689000       0.072800
     4148.861100       0.073500
     4149.033300       0.074100
     4149.205400       0.074700
     4149.377600       0.075100
     4149.549800       0.075500
     4149.722000       0.075800
     4149.894200       0.076000
     4150.066400       0.076100
     4150.238600       0.076100
     4150.410900       0.076200
     4150.583200       0.076100
     4150.755400       0.076100
     4150.927700       0.076100
     4151.100000       0.076100
     4151.272400       0.076100
     4151.444700       0.076100
     4151.617100       0.076200
     4151.789400       0.076400
     4151.961800       0.076500
     4152.134200       0.076700
     4152.306600       0.077000
     4152.479000       0.077300
     4152.651500       0.077700
     4152.823900       0.078100
     4152.996400       0.078600
     4153.168900       0.079100
     4153.341400       0.079700
     4153.513900       0.080200
     4153.686400       0.080800
     4153.858900       0.081300
     4154.031500       0.081700
     4154.204100       0.082000
     4154.376600       0.082300
     4154.549200       0.082400
     4154.721800       0.082400
     4154.894500       0.082300
     4155.067100       0.082000
     4155.239800       0.081800
     4155.412400       0.081500
     4155.585100       0.081300
     4155.757800       0.081100
     4155.930500       0.080900
     4156.103200       0.080900
     4156.276000       0.081100
     4156.448700       0.081400
     4156.621500       0.081800
     4156.794300       0.082400
     4156.967100       0.083000
     4157.139900       0.083700
     4157.312700       0.084300
     4157.485600       0.084900
     4157.658400       0.085400
     4157.831300       0.085800
     4158.004200       0.086100
     4158.177100       0.086200
     4158.350000       0.086100
     4158.522900       0.085900
     4158.695800       0.085700
     4158.868800       0.085500
     4159.041800       0.085300
     4159.214700       0.085200
     4159.387700       0.085200
     4159.560800       0.085400
     4159.733800       0.085900
     4159.906800       0.086600
     4160.079900       0.087500
     4160.252900       0.088500
     4160.426000       0.089600
     4160.599100       0.090800
     4160.772200       0.091900
     4160.945400       0.092900
     4161.118500       0.093700
     4161.291700       0.094300
     4161.464800       0.094500
     4161.638000       0.094400
     4161.811200       0.094100
     4161.984400       0.093500
     4162.157700       0.092700
     4162.330900       0.091900
     4162.504200       0.091000
     4162.677400       0.090300
     4162.850700       0.089600
     4163.024000       0.089200
     4163.197300       0.089000
     4163.370700       0.089200
     4163.544000       0.089600
     4163.717400       0.090400
     4163.890700       0.091300
     4164.064100       0.092300
     4164.237500       0.093400
     4164.410900       0.094600
     4164.584400       0.095700
     4164.757800       0.096800
     4164.931300       0.097700
     4165.104800       0.098500
     4165.278200       0.099200
     4165.451700       0.099700
     4165.625300       0.100000
     4165.798800       0.100300
     4165.972300       0.100500
     4166.145900       0.100600
     4166.319500       0.100600
     4166.493100       0.100600
     4166.666700       0.100600
     4166.840300       0.100600
     4167.013900       0.100500
     4167.187600       0.100500
     4167.361200       0.100600
     4167.534900       0.100600
     4167.708600       0.100800
     4167.882300       0.101000
     4168.056000       0.101300
     4168.229800       0.101700
     4168.403500       0.102200
     4168.577300       0.102900
     4168.751000       0.103600
     4168.924800       0.104400
     4169.098600       0.105200
     4169.272500       0.106000
     4169.446300       0.106700
     4169.620100       0.107300
     4169.794000       0.107800
     4169.967900       0.108100
     4170.141800       0.108200
     4170.315700       0.108000
     4170.489600       0.107600
     4170.663600       0.107100
     4170.837500       0.106600
     4171.011500       0.106000
     4171.185500       0.105500
     4171.359400       0.105000
     4171.533500       0.104800
     4171.707500       0.104700
     4171.881500       0.105000
     4172.055600       0.105600
     4172.229600       0.106400
     4172.403700       0.107500
     4172.577800       0.108700
     4172.751900       0.110000
     4172.926100       0.111200
     4173.100200       0.112300
     4173.274400       0.113300
     4173.448500       0.114000
     4173.622700       0.114500
     4173.796900       0.114500
     4173.971100       0.114300
     4174.145300       0.113800
     4174.319600       0.113200
     4174.493800       0.112500
     4174.668100       0.111700
     4174.842400       0.111100
     4175.016700       0.110600
     4175.191000       0.110400
     4175.365300       0.110400
     4175.539700       0.110800
     4175.714000       0.111500
     4175.888400       0.112500
     4176.062800       0.113700
     4176.237200       0.115000
     4176.411600       0.116300
     4176.586100       0.117700
     4176.760500       0.119000
     4176.935000       0.120200
     4177.109400       0.121200
     4177.283900       0.122000
     4177.458400       0.122500
     4177.633000       0.122900
     4177.807500       0.123100
     4177.982000       0.123200
     4178.156600       0.123100
     4178.331200       0.123000
     4178.505800       0.122900
     4178.680400       0.122700
     4178.855000       0.122600
     4179.029600       0.122500
     4179.204300       0.122500
     4179.378900       0.122500
     4179.553600       0.122600
     4179.728300       0.122800
     4179.903000       0.123100
     4180.077700       0.123400
     4180.252500       0.123900
     4180.427200       0.124500
     4180.602000       0.125300
     4180.776800       0.126100
     4180.951600       0.127100
     4181.126400       0.128100
     4181.301200       0.129100
     4181.476100       0.130000
     4181.650900       0.130900
     4181.825800       0.131700
     4182.000700       0.132300
     4182.175600       0.132700
     4182.350500       0.132800
     4182.525400       0.132600
     4182.700400       0.132300
     4182.875300       0.131700
     4183.050300       0.131100
     4183.225300       0.130500
     4183.400300       0.129900
     4183.575300       0.129400
     4183.750300       0.129100
     4183.925400       0.129100
     4184.100400       0.129400
     4184.275500       0.130100
     4184.450600       0.131100
     4184.625700       0.132300
     4184.800800       0.133700
     4184.975900       0.135200
     4185.151100       0.136700
     4185.326200       0.138100
     4185.501400       0.139300
     4185.676600       0.140300
     4185.851800       0.141000
     4186.027000       0.141400
     4186.202300       0.141400
     4186.377500       0.141200
     4186.552800       0.140800
     4186.728100       0.140300
     4186.903400       0.139800
     4187.078700       0.139400
     4187.254000       0.139100
     4187.429300       0.139100
     4187.604700       0.139300
     4187.780100       0.139900
     4187.955400       0.140800
     4188.130800       0.141900
     4188.306200       0.143100
     4188.481700       0.144500
     4188.657100       0.145900
     4188.832600       0.147200
     4189.008000       0.148300
     4189.183500       0.149300
     4189.359000       0.150100
     4189.534500       0.150500
     4189.710100       0.150600
     4189.885600       0.150500
     4190.061200       0.150200
     4190.236700       0.149900
     4190.412300       0.149500
     4190.587900       0.149100
     4190.763600       0.148700
     4190.939200       0.148600
     4191.114800       0.148600
     4191.290500       0.148800
     4191.466200       0.149300
     4191.641900       0.150000
     4191.817600       0.150800
     4191.993300       0.151800
     4192.169000       0.152900
     4192.344800       0.154100
     4192.520500       0.155300
     4192.696300       0.156600
     4192.872100       0.157800
     4193.047900       0.159100
     4193.223800       0.160300
     4193.399600       0.161400
     4193.575400       0.162400
     4193.751300       0.163300
     4193.927200       0.164100
     4194.103100       0.164700
     4194.279000       0.165100
     4194.454900       0.165400
     4194.630900       0.165400
     4194.806800       0.165200
     4194.982800       0.164800
     4195.158800       0.164300
     4195.334800       0.163700
     4195.510800       0.163100
     4195.686800       0.162600
     4195.862900       0.162200
     4196.038900       0.161900
     4196.215000       0.161900
     4196.391100       0.162300
     4196.567200       0.162900
     4196.743300       0.163800
     4196.919500       0.164900
     4197.095600       0.166200
     4197.271800       0.167500
     4197.448000       0.168900
     4197.624100       0.170100
     4197.800400       0.171200
     4197.976600       0.172000
     4198.152800       0.172500
     4198.329100       0.172700
     4198.505300       0.172600
     4198.681600       0.172200
     4198.857900       0.171700
     4199.034200       0.171200
     4199.210500       0.170700
     4199.386900       0.170300
     4199.563200       0.170100
     4199.739600       0.170200
     4199.916000       0.170600
     4200.092400       0.171400
     4200.268800       0.172600
     4200.445200       0.174100
     4200.621700       0.175900
     4200.798200       0.177700
     4200.974600       0.179600
     4201.151100       0.181500
     4201.327600       0.183400
     4201.504100       0.185000
     4201.680700       0.186500
     4201.857200       0.187600
     4202.033800       0.188500
     4202.210400       0.189200
     4202.387000       0.189600
     4202.563600       0.189800
     4202.740200       0.189900
     4202.916800       0.189900
     4203.093500       0.189800
     4203.270100       0.189700
     4203.446800       0.189500
     4203.623500       0.189400
     4203.800200       0.189300
     4203.977000       0.189200
     4204.153700       0.189200
     4204.330500       0.189400
     4204.507200       0.189700
     4204.684000       0.190100
     4204.860800       0.190800
     4205.037600       0.191700
     4205.214500       0.192800
     4205.391300       0.194200
     4205.568200       0.195700
     4205.745000       0.197400
     4205.921900       0.199100
     4206.098800       0.200700
     4206.275800       0.202200
     4206.452700       0.203400
     4206.629600       0.204300
     4206.806600       0.204800
     4206.983600       0.204800
     4207.160600       0.204300
     4207.337600       0.203300
     4207.514600       0.202000
     4207.691700       0.200600
     4207.868700       0.199200
     4208.045800       0.197900
     4208.222900       0.196800
     4208.400000       0.196200
     4208.577100       0.196100
     4208.754200       0.196700
     4208.931400       0.198000
     4209.108500       0.200100
     4209.285700       0.202600
     4209.462900       0.205500
     4209.640100       0.208500
     4209.817300       0.211600
     4209.994500       0.214500
     4210.171800       0.217100
     4210.349000       0.219300
     4210.526300       0.220900
     4210.703600       0.221700
     4210.880900       0.221800
     4211.058200       0.221500
     4211.235600       0.220800
     4211.412900       0.219800
     4211.590300       0.218700
     4211.767700       0.217700
     4211.945100       0.216800
     4212.122500       0.216200
     4212.299900       0.216100
     4212.477400       0.216500
     4212.654800       0.217300
     4212.832300       0.218600
     4213.009800       0.220200
     4213.187300       0.222000
     4213.364800       0.223900
     4213.542300       0.225900
     4213.719900       0.227900
     4213.897400       0.229700
     4214.075000       0.231400
     4214.252600       0.232800
     4214.430200       0.233900
     4214.607800       0.234800
     4214.785500       0.235400
     4214.963100       0.235900
     4215.140800       0.236200
     4215.318500       0.236400
     4215.496200       0.236400
     4215.673900       0.236300
     4215.851600       0.236200
     4216.029300       0.236000
     4216.207100       0.235800
     4216.384900       0.235700
     4216.562700       0.235600
     4216.740500       0.235700
     4216.918300       0.236000
     4217.096100       0.236400
     4217.274000       0.237200
     4217.451800       0.238200
     4217.629700       0.239600
     4217.807600       0.241400
     4217.985500       0.243500
     4218.163400       0.245700
     4218.341300       0.248100
     4218.519300       0.250400
     4218.697300       0.252600
     4218.875200       0.254500
     4219.053200       0.256100
     4219.231300       0.257200
     4219.409300       0.257800
     4219.587300       0.257700
     4219.765400       0.257200
     4219.943500       0.256200
     4220.121500       0.255000
     4220.299600       0.253700
     4220.477800       0.252500
     4220.655900       0.251400
     4220.834000       0.250700
     4221.012200       0.250500
     4221.190400       0.251000
     4221.368600       0.252200
     4221.546800       0.254000
     4221.725000       0.256300
     4221.903200       0.259000
     4222.081500       0.261800
     4222.259800       0.264700
     4222.438000       0.267500
     4222.616300       0.270000
     4222.794600       0.272100
     4222.973000       0.273700
     4223.151300       0.274600
     4223.329700       0.274900
     4223.508000       0.274700
     4223.686400       0.274200
     4223.864800       0.273400
     4224.043300       0.272500
     4224.221700       0.271600
     4224.400100       0.270800
     4224.578600       0.270100
     4224.757100       0.269800
     4224.935600       0.269900
     4225.114100       0.270400
     4225.292600       0.271200
     4225.471100       0.272300
     4225.649700       0.273800
     4225.828300       0.275400
     4226.006800       0.277300
     4226.185400       0.279300
     4226.364100       0.281500
     4226.542700       0.283700
     4226.721300       0.286000
     4226.900000       0.288300
     4227.078700       0.290600
     4227.257400       0.292700
     4227.436100       0.294700
     4227.614800       0.296500
     4227.793500       0.298000
     4227.972300       0.299300
     4228.151000       0.300200
     4228.329800       0.300600
     4228.508600       0.300700
     4228.687400       0.300300
     4228.866200       0.299800
     4229.045100       0.299100
     4229.223900       0.298400
     4229.402800       0.297800
     4229.581700       0.297400
     4229.760600       0.297400
     4229.939500       0.297700
     4230.118400       0.298600
     4230.297400       0.300100
     4230.476400       0.302100
     4230.655300       0.304500
     4230.834300       0.307100
     4231.013300       0.309900
     4231.192400       0.312600
     4231.371400       0.315100
     4231.550400       0.317300
     4231.729500       0.319000
     4231.908600       0.320200
     4232.087700       0.320600
     4232.266800       0.320500
     4232.445900       0.319900
     4232.625100       0.318900
     4232.804200       0.317800
     4232.983400       0.316500
     4233.162600       0.315200
     4233.341800       0.314100
     4233.521000       0.313300
     4233.700300       0.312900
     4233.879500       0.313000
     4234.058800       0.313500
     4234.238000       0.314500
     4234.417300       0.315900
     4234.596700       0.317700
     4234.776000       0.319800
     4234.955300       0.322100
     4235.134700       0.324700
     4235.314000       0.327400
     4235.493400       0.330300
     4235.672800       0.333200
     4235.852300       0.336200
     4236.031700       0.339100
     4236.211100       0.342000
     4236.390600       0.344600
     4236.570100       0.347000
     4236.749600       0.349000
     4236.929100       0.350700
     4237.108600       0.351900
     4237.288100       0.352600
     4237.467700       0.352800
     4237.647300       0.352500
     4237.826800       0.351800
     4238.006400       0.351000
     4238.186100       0.350100
     4238.365700       0.349300
     4238.545300       0.348700
     4238.725000       0.348400
     4238.904700       0.348700
     4239.084400       0.349600
     4239.264100       0.351100
     4239.443800       0.353300
     4239.623500       0.355900
     4239.803300       0.358800
     4239.983000       0.361900
     4240.162800       0.364800
     4240.342600       0.367600
     4240.522400       0.370100
     4240.702300       0.372000
     4240.882100       0.373300
     4241.062000       0.373800
     4241.241800       0.373600
     4241.421700       0.372900
     4241.601600       0.371900
     4241.781500       0.370700
     4241.961500       0.369500
     4242.141400       0.368500
     4242.321400       0.367700
     4242.501400       0.367500
     4242.681400       0.367900
     4242.861400       0.369000
     4243.041400       0.370800
     4243.221500       0.373200
     4243.401500       0.375900
     4243.581600       0.378900
     4243.761700       0.382100
     4243.941800       0.385200
     4244.121900       0.388200
     4244.302000       0.390900
     4244.482200       0.393200
     4244.662300       0.395100
     4244.842500       0.396400
     4245.022700       0.397300
     4245.202900       0.397900
     4245.383100       0.398200
     4245.563400       0.398300
     4245.743600       0.398300
     4245.923900       0.398200
     4246.104200       0.398100
     4246.284500       0.398000
     4246.464800       0.398100
     4246.645200       0.398300
     4246.825500       0.398700
     4247.005900       0.399300
     4247.186200       0.400000
     4247.366600       0.401000
     4247.547000       0.402300
     4247.727500       0.403800
     4247.907900       0.405500
     4248.088400       0.407600
     4248.268800       0.409900
     4248.449300       0.412500
     4248.629800       0.415200
     4248.810300       0.417900
     4248.990900       0.420500
     4249.171400       0.422800
     4249.352000       0.424900
     4249.532600       0.426600
     4249.713100       0.427800
     4249.893800       0.428300
     4250.074400       0.428200
     4250.255000       0.427500
     4250.435700       0.426400
     4250.616300       0.425200
     4250.797000       0.423900
     4250.977700       0.422700
     4251.158400       0.421900
     4251.339200       0.421500
     4251.519900       0.421800
     4251.700700       0.423000
     4251.881500       0.425000
     4252.062300       0.427900
     4252.243100       0.431300
     4252.423900       0.435200
     4252.604700       0.439200
     4252.785600       0.443300
     4252.966400       0.447100
     4253.147300       0.450500
     4253.328200       0.453300
     4253.509100       0.455300
     4253.690100       0.456300
     4253.871000       0.456500
     4254.052000       0.456000
     4254.233000       0.455000
     4254.414000       0.453700
     4254.595000       0.452300
     4254.776000       0.450800
     4254.957000       0.449500
     4255.138100       0.448600
     4255.319100       0.448300
     4255.500200       0.448500
     4255.681300       0.449500
     4255.862500       0.450900
     4256.043600       0.452900
     4256.224700       0.455200
     4256.405900       0.457800
     4256.587100       0.460800
     4256.768300       0.463800
     4256.949500       0.467000
     4257.130700       0.470200
     4257.311900       0.473300
     4257.493200       0.476400
     4257.674500       0.479200
     4257.855700       0.481900
     4258.037000       0.484300
     4258.218400       0.486400
     4258.399700       0.488100
     4258.581000       0.489500
     4258.762400       0.490300
     4258.943800       0.490700
     4259.125200       0.490500
     4259.306600       0.490000
     4259.488000       0.489100
     4259.669400       0.488200
     4259.850900       0.487300
     4260.032400       0.486600
     4260.213900       0.486200
     4260.395400       0.486400
     4260.576900       0.487200
     4260.758400       0.488800
     4260.940000       0.491200
     4261.121500       0.494500
     4261.303100       0.498300
     4261.484700       0.502400
     4261.666300       0.506700
     4261.847900       0.510900
     4262.029600       0.514900
     4262.211200       0.518400
     4262.392900       0.521200
     4262.574600       0.523200
     4262.756300       0.524100
     4262.938000       0.524200
     4263.119800       0.523600
     4263.301500       0.522500
     4263.483300       0.521200
     4263.665000       0.519700
     4263.846800       0.518300
     4264.028700       0.517200
     4264.210500       0.516600
     4264.392300       0.516600
     4264.574200       0.517500
     4264.756100       0.519100
     4264.937900       0.521400
     4265.119800       0.524200
     4265.301800       0.527400
     4265.483700       0.530900
     4265.665700       0.534600
     4265.847600       0.538400
     4266.029600       0.542100
     4266.211600       0.545700
     4266.393600       0.549000
     4266.575600       0.552000
     4266.757700       0.554700
     4266.939800       0.557100
     4267.121800       0.559200
     4267.303900       0.560800
     4267.486000       0.562100
     4267.668100       0.563000
     4267.850300       0.563400
     4268.032400       0.563400
     4268.214600       0.562900
     4268.396800       0.562100
     4268.579000       0.561200
     4268.761200       0.560200
     4268.943400       0.559300
     4269.125700       0.558800
     4269.307900       0.558700
     4269.490200       0.559100
     4269.672500       0.560400
     4269.854800       0.562500
     4270.037100       0.565600
     4270.219500       0.569500
     4270.401800       0.574000
     4270.584200       0.578800
     4270.766600       0.583700
     4270.949000       0.588500
     4271.131400       0.592900
     4271.313900       0.596600
     4271.496300       0.599600
     4271.678800       0.601400
     4271.861200       0.601900
     4272.043700       0.601400
     4272.226300       0.600000
     4272.408800       0.597900
     4272.591300       0.595500
     4272.773900       0.592900
     4272.956500       0.590400
     4273.139000       0.588200
     4273.321700       0.586500
     4273.504300       0.585700
     4273.686900       0.585800
     4273.869600       0.586800
     4274.052200       0.588600
     4274.234900       0.591000
     4274.417600       0.594000
     4274.600300       0.597300
     4274.783100       0.600900
     4274.965800       0.604600
     4275.148600       0.608400
     4275.331300       0.612000
     4275.514100       0.615400
     4275.696900       0.618500
     4275.879800       0.621400
     4276.062600       0.623900
     4276.245500       0.626000
     4276.428300       0.627900
     4276.611200       0.629300
     4276.794100       0.630300
     4276.977000       0.630800
     4277.160000       0.630900
     4277.342900       0.630600
     4277.525900       0.629900
     4277.708900       0.629000
     4277.891900       0.628200
     4278.074900       0.627500
     4278.257900       0.627100
     4278.440900       0.627200
     4278.624000       0.627900
     4278.807100       0.629500
     4278.990200       0.632000
     4279.173300       0.635600
     4279.356400       0.640000
     4279.539500       0.645000
     4279.722700       0.650400
     4279.905800       0.655800
     4280.089000       0.661000
     4280.272200       0.665800
     4280.455400       0.669800
     4280.638700       0.672800
     4280.821900       0.674500
     4281.005200       0.674800
     4281.188500       0.673800
     4281.371800       0.671900
     4281.555100       0.669400
     4281.738400       0.666400
     4281.921700       0.663400
     4282.105100       0.660600
     4282.288500       0.658300
     4282.471800       0.656800
     4282.655200       0.656400
     4282.838700       0.657300
     4283.022100       0.659400
     4283.205600       0.662400
     4283.389000       0.666100
     4283.572500       0.670300
     4283.756000       0.674900
     4283.939500       0.679500
     4284.123000       0.684100
     4284.306600       0.688200
     4284.490100       0.691800
     4284.673700       0.694700
     4284.857300       0.696900
     4285.040900       0.698500
     4285.224500       0.699600
     4285.408200       0.700300
     4285.591800       0.700600
     4285.775500       0.700700
     4285.959200       0.700600
     4286.142900       0.700400
     4286.326600       0.700300
     4286.510400       0.700200
     4286.694100       0.700300
     4286.877900       0.700500
     4287.061600       0.700900
     4287.245400       0.701700
     4287.429300       0.702700
     4287.613100       0.704000
     4287.796900       0.705700
     4287.980800       0.707900
     4288.164700       0.710500
     4288.348600       0.713500
     4288.532500       0.716900
     4288.716400       0.720500
     4288.900300       0.724200
     4289.084300       0.727800
     4289.268300       0.731100
     4289.452200       0.734100
     4289.636200       0.736500
     4289.820300       0.738200
     4290.004300       0.739100
     4290.188300       0.739000
     4290.372400       0.738200
     4290.556500       0.736800
     4290.740600       0.735000
     4290.924700       0.733000
     4291.108800       0.731000
     4291.293000       0.729200
     4291.477100       0.727800
     4291.661300       0.727000
     4291.845500       0.727100
     4292.029700       0.728000
     4292.213900       0.729900
     4292.398200       0.732400
     4292.582400       0.735600
     4292.766700       0.739200
     4292.951000       0.743100
     4293.135300       0.747100
     4293.319600       0.751200
     4293.503900       0.755200
     4293.688300       0.758900
     4293.872600       0.762300
     4294.057000       0.765200
     4294.241400       0.767800
     4294.425800       0.770100
     4294.610300       0.771900
     4294.794700       0.773400
     4294.979200       0.774600
     4295.163600       0.775300
     4295.348100       0.775800
     4295.532600       0.775800
     4295.717200       0.775600
     4295.901700       0.775100
     4296.086300       0.774500
     4296.270800       0.773900
     4296.455400       0.773400
     4296.640000       0.773100
     4296.824600       0.773100
     4297.009300       0.773600
     4297.193900       0.774600
     4297.378600       0.776200
     4297.563300       0.778500
     4297.748000       0.781500
     4297.932700       0.784800
     4298.117400       0.788400
     4298.302200       0.792000
     4298.486900       0.795500
     4298.671700       0.798600
     4298.856500       0.801300
     4299.041300       0.803400
     4299.226100       0.804600
     4299.411000       0.804800
     4299.595800       0.804300
     4299.780700       0.803100
     4299.965600       0.801600
     4300.150500       0.799800
     4300.335400       0.798100
     4300.520400       0.796500
     4300.705300       0.795400
     4300.890300       0.794900
     4301.075300       0.795200
     4301.260300       0.796500
     4301.445300       0.798700
     4301.630300       0.801600
     4301.815400       0.805100
     4302.000400       0.809100
     4302.185500       0.813300
     4302.370600       0.817700
     4302.555700       0.822200
     4302.740800       0.826500
     4302.926000       0.830500
     4303.111100       0.834100
     4303.296300       0.837300
     4303.481500       0.840000
     4303.666700       0.842300
     4303.851900       0.844100
     4304.037200       0.845300
     4304.222400       0.846100
     4304.407700       0.846300
     4304.593000       0.846000
     4304.778300       0.845100
     4304.963600       0.843700
     4305.149000       0.841800
     4305.334300       0.839700
     4305.519700       0.837500
     4305.705100       0.835300
     4305.890500       0.833400
     4306.075900       0.831900
     4306.261300       0.830900
     4306.446800       0.830600
     4306.632200       0.831200
     4306.817700       0.832700
     4307.003200       0.835100
     4307.188700       0.838100
     4307.374200       0.841600
     4307.559800       0.845200
     4307.745300       0.848900
     4307.930900       0.852400
     4308.116500       0.855500
     4308.302100       0.858000
     4308.487700       0.859700
     4308.673400       0.860400
     4308.859000       0.860400
     4309.044700       0.859700
     4309.230400       0.858500
     4309.416100       0.857100
     4309.601800       0.855500
     4309.787500       0.854000
     4309.973300       0.852800
     4310.159000       0.852000
     4310.344800       0.851800
     4310.530600       0.852300
     4310.716400       0.853500
     4310.902300       0.855300
     4311.088100       0.857600
     4311.274000       0.860200
     4311.459900       0.863200
     4311.645800       0.866200
     4311.831700       0.869400
     4312.017600       0.872500
     4312.203500       0.875400
     4312.389500       0.878100
     4312.575500       0.880600
     4312.761500       0.882800
     4312.947500       0.884800
     4313.133500       0.886600
     4313.319500       0.888100
     4313.505600       0.889300
     4313.691700       0.890300
     4313.877700       0.891100
     4314.063800       0.891700
     4314.250000       0.892000
     4314.436100       0.892100
     4314.622300       0.892100
     4314.808400       0.892100
     4314.994600       0.892000
     4315.180800       0.892000
     4315.367000       0.892000
     4315.553300       0.892200
     4315.739500       0.892600
     4315.925800       0.893200
     4316.112000       0.894100
     4316.298300       0.895200
     4316.484700       0.896600
     4316.671000       0.898000
     4316.857300       0.899500
     4317.043700       0.901100
     4317.230100       0.902500
     4317.416500       0.903900
     4317.602900       0.905100
     4317.789300       0.906100
     4317.975700       0.906900
     4318.162200       0.907400
     4318.348700       0.907700
     4318.535200       0.907900
     4318.721700       0.907900
     4318.908200       0.908000
     4319.094700       0.908000
     4319.281300       0.908200
     4319.467800       0.908400
     4319.654400       0.908700
     4319.841000       0.909200
     4320.027600       0.910000
     4320.214300       0.910900
     4320.400900       0.912000
     4320.587600       0.913200
     4320.774300       0.914700
     4320.961000       0.916300
     4321.147700       0.918100
     4321.334400       0.920100
     4321.521200       0.922200
     4321.707900       0.924500
     4321.894700       0.926900
     4322.081500       0.929300
     4322.268300       0.931700
     4322.455200       0.933900
     4322.642000       0.936000
     4322.828900       0.937900
     4323.015700       0.939400
     4323.202600       0.940600
     4323.389500       0.941400
     4323.576500       0.941600
     4323.763400       0.941400
     4323.950400       0.940900
     4324.137300       0.940100
     4324.324300       0.939200
     4324.511300       0.938100
     4324.698400       0.937000
     4324.885400       0.936000
     4325.072400       0.935100
     4325.259500       0.934500
     4325.446600       0.934100
     4325.633700       0.934100
     4325.820800       0.934300
     4326.008000       0.934800
     4326.195100       0.935500
     4326.382300       0.936500
     4326.569500       0.937800
     4326.756700       0.939200
     4326.943900       0.940900
     4327.131100       0.942800
     4327.318400       0.944900
     4327.505600       0.947100
     4327.692900       0.949300
     4327.880200       0.951400
     4328.067500       0.953500
     4328.254800       0.955300
     4328.442200       0.956900
     4328.629600       0.958100
     4328.816900       0.958900
     4329.004300       0.959200
     4329.191700       0.958900
     4329.379200       0.958100
     4329.566600       0.957000
     4329.754100       0.955700
     4329.941500       0.954300
     4330.129000       0.952900
     4330.316500       0.951700
     4330.504100       0.950700
     4330.691600       0.950100
     4330.879200       0.950100
     4331.066700       0.950600
     4331.254300       0.951700
     4331.441900       0.953100
     4331.629600       0.954900
     4331.817200       0.956800
     4332.004900       0.958600
     4332.192500       0.960400
     4332.380200       0.962000
     4332.567900       0.963200
     4332.755600       0.963900
     4332.943400       0.964100
     4333.131100       0.963700
     4333.318900       0.963000
     4333.506700       0.962000
     4333.694500       0.960900
     4333.882300       0.959600
     4334.070100       0.958500
     4334.258000       0.957500
     4334.445800       0.956700
     4334.633700       0.956400
     4334.821600       0.956500
     4335.009500       0.957100
     4335.197500       0.958000
     4335.385400       0.959200
     4335.573400       0.960700
     4335.761400       0.962400
     4335.949400       0.964300
     4336.137400       0.966200
     4336.325400       0.968200
     4336.513400       0.970100
     4336.701500       0.971900
     4336.889600       0.973600
     4337.077700       0.975200
     4337.265800       0.976600
     4337.453900       0.977700
     4337.642100       0.978600
     4337.830200       0.979200
     4338.018400       0.979400
     4338.206600       0.979300
     4338.394800       0.978700
     4338.583000       0.977800
     4338.771300       0.976500
     4338.959500       0.975000
     4339.147800       0.973400
     4339.336100       0.971700
     4339.524400       0.970200
     4339.712700       0.968900
     4339.901100       0.968000
     4340.089400       0.967500
     4340.277800       0.967500
     4340.466200       0.968200
     4340.654600       0.969400
     4340.843000       0.971000
     4341.031400       0.973000
     4341.219900       0.975100
     4341.408400       0.977200
     4341.596800       0.979200
     4341.785300       0.981000
     4341.973900       0.982500
     4342.162400       0.983600
     4342.350900       0.984100
     4342.539500       0.984000
     4342.728100       0.983600
     4342.916700       0.982900
     4343.105300       0.981900
     4343.294000       0.980800
     4343.482600       0.979600
     4343.671300       0.978500
     4343.860000       0.977500
     4344.048700       0.976700
     4344.237400       0.976200
     4344.426100       0.976000
     4344.614800       0.976000
     4344.803600       0.976300
     4344.992400       0.976700
     4345.181200       0.977300
     4345.370000       0.978000
     4345.558800       0.978800
     4345.747700       0.979700
     4345.936500       0.980700
     4346.125400       0.981600
     4346.314300       0.982500
     4346.503200       0.983400
     4346.692200       0.984300
     4346.881100       0.985000
     4347.070100       0.985700
     4347.259100       0.986200
     4347.448000       0.986600
     4347.637100       0.986800
     4347.826100       0.986800
     4348.015100       0.986600
     4348.204200       0.986200
     4348.393300       0.985800
     4348.582400       0.985300
     4348.771500       0.984800
     4348.960600       0.984400
     4349.149700       0.984100
     4349.338900       0.984000
     4349.528100       0.984100
     4349.717300       0.984600
     4349.906500       0.985400
     4350.095700       0.986400
     4350.284900       0.987700
     4350.474200       0.989200
     4350.663500       0.990700
     4350.852800       0.992300
     4351.042100       0.993700
     4351.231400       0.995100
     4351.420700       0.996300
     4351.610100       0.997200
     4351.799500       0.997800
     4351.988900       0.998100
     4352.178300       0.998100
     4352.367700       0.998000
     4352.557100       0.997600
     4352.746600       0.997100
     4352.936100       0.996500
     4353.125500       0.995800
     4353.315000       0.995000
     4353.504600       0.994300
     4353.694100       0.993500
     4353.883700       0.992800
     4354.073200       0.992200
     4354.262800       0.991600
     4354.452400       0.991200
     4354.642000       0.990800
     4354.831700       0.990600
     4355.021300       0.990500
     4355.211000       0.990500
     4355.400700       0.990700
     4355.590400       0.991100
     4355.780100       0.991600
     4355.969900       0.992200
     4356.159600       0.992800
     4356.349400       0.993300
     4356.539200       0.993800
     4356.729000       0.994100
     4356.918800       0.994200
     4357.108600       0.994100
     4357.298500       0.993600
     4357.488300       0.992800
     4357.678200       0.991700
     4357.868100       0.990400
     4358.058000       0.989000
     4358.248000       0.987600
     4358.437900       0.986200
     4358.627900       0.984900
     4358.817900       0.983900
     4359.007900       0.983100
     4359.197900       0.982800
     4359.387900       0.982900
     4359.578000       0.983400
     4359.768100       0.984200
     4359.958100       0.985300
     4360.148200       0.986600
     4360.338400       0.988000
     4360.528500       0.989500
     4360.718600       0.991000
     4360.908800       0.992400
     4361.099000       0.993600
     4361.289200       0.994600
     4361.479400       0.995500
     4361.669600       0.996100
     4361.859900       0.996600
     4362.050200       0.997000
     4362.240400       0.997200
     4362.430700       0.997300
     4362.621100       0.997400
     4362.811400       0.997400
     4363.001700       0.997400
     4363.192100       0.997400
     4363.382500       0.997300
     4363.572900       0.997300
     4363.763300       0.997200
     4363.953700       0.997000
     4364.144200       0.996900
     4364.334700       0.996700
     4364.525100       0.996400
     4364.715600       0.996100
     4364.906200       0.995700
     4365.096700       0.995200
     4365.287200       0.994700
     4365.477800       0.994200
     4365.668400       0.993500
     4365.859000       0.992800
     4366.049600       0.992000
     4366.240200       0.991200
     4366.430900       0.990300
     4366.621500       0.989300
     4366.812200       0.988200
     4367.002900       0.987100
     4367.193600       0.985900
     4367.384400       0.984800
     4367.575100       0.983800
     4367.765900       0.983000
     4367.956700       0.982400
     4368.147500       0.982100
     4368.338300       0.982200
     4368.529100       0.982700
     4368.720000       0.983600
     4368.910800       0.985000
     4369.101700       0.986900
     4369.292600       0.989000
     4369.483500       0.991200
     4369.674500       0.993400
     4369.865400       0.995500
     4370.056400       0.997400
     4370.247400       0.998800
     4370.438400       0.999700
     4370.629400       1.000000
     4370.820400       0.999500
     4371.011500       0.998400
     4371.202500       0.996700
     4371.393600       0.994600
     4371.584700       0.992300
     4371.775800       0.989900
     4371.966900       0.987400
     4372.158100       0.985200
     4372.349300       0.983200
     4372.540400       0.981600
     4372.731600       0.980500
     4372.922900       0.979900
     4373.114100       0.979700
     4373.305300       0.979900
     4373.496600       0.980400
     4373.687900       0.981100
     4373.879200       0.982000
     4374.070500       0.983100
     4374.261800       0.984100
     4374.453200       0.985200
     4374.644600       0.986300
     4374.835900       0.987200
     4375.027300       0.988000
     4375.218800       0.988700
     4375.410200       0.989200
     4375.601600       0.989500
     4375.793100       0.989500
     4375.984600       0.989300
     4376.176100       0.988800
     4376.367600       0.988000
     4376.559100       0.986800
     4376.750700       0.985400
     4376.942300       0.983800
     4377.133900       0.982200
     4377.325500       0.980500
     4377.517100       0.979000
     4377.708700       0.977700
     4377.900400       0.976600
     4378.092000       0.976000
     4378.283700       0.975800
     4378.475400       0.976200
     4378.667100       0.977000
     4378.858900       0.978200
     4379.050600       0.979600
     4379.242400       0.981100
     4379.434200       0.982700
     4379.626000       0.984100
     4379.817800       0.985400
     4380.009600       0.986300
     4380.201500       0.986700
     4380.393400       0.986700
     4380.585200       0.986200
     4380.777100       0.985300
     4380.969100       0.984000
     4381.161000       0.982500
     4381.353000       0.980800
     4381.544900       0.979100
     4381.736900       0.977300
     4381.928900       0.975500
     4382.120900       0.973900
     4382.313000       0.972400
     4382.505000       0.971200
     4382.697100       0.970100
     4382.889200       0.969300
     4383.081300       0.968800
     4383.273400       0.968500
     4383.465600       0.968400
     4383.657700       0.968700
     4383.849900       0.969200
     4384.042100       0.970000
     4384.234300       0.971100
     4384.426500       0.972400
     4384.618800       0.973900
     4384.811000       0.975400
     4385.003300       0.976800
     4385.195600       0.978100
     4385.387900       0.979200
     4385.580200       0.980000
     4385.772600       0.980400
     4385.964900       0.980300
     4386.157300       0.979600
     4386.349700       0.978500
     4386.542100       0.977000
     4386.734500       0.975300
     4386.927000       0.973400
     4387.119400       0.971500
     4387.311900       0.969600
     4387.504400       0.967900
     4387.696900       0.966500
     4387.889400       0.965500
     4388.082000       0.965000
     4388.274500       0.964900
     4388.467100       0.965200
     4388.659700       0.965800
     4388.852300       0.966600
     4389.044900       0.967600
     4389.237600       0.968800
     4389.430300       0.970000
     4389.622900       0.971200
     4389.815600       0.972300
     4390.008300       0.973400
     4390.201100       0.974300
     4390.393800       0.975000
     4390.586600       0.975500
     4390.779400       0.975900
     4390.972200       0.976000
     4391.165000       0.975800
     4391.357800       0.975500
     4391.550700       0.974800
     4391.743500       0.973800
     4391.936400       0.972500
     4392.129300       0.971000
     4392.322200       0.969400
     4392.515200       0.967600
     4392.708100       0.965900
     4392.901100       0.964300
     4393.094100       0.962800
     4393.287100       0.961600
     4393.480100       0.960800
     4393.673100       0.960400
     4393.866200       0.960400
     4394.059200       0.960900
     4394.252300       0.961600
     4394.445400       0.962600
     4394.638500       0.963700
     4394.831700       0.964900
     4395.024800       0.965900
     4395.218000       0.966800
     4395.411200       0.967400
     4395.604400       0.967600
     4395.797600       0.967400
     4395.990900       0.966800
     4396.184100       0.965800
     4396.377400       0.964600
     4396.570700       0.963200
     4396.764000       0.961600
     4396.957300       0.960000
     4397.150600       0.958400
     4397.344000       0.956900
     4397.537400       0.955500
     4397.730800       0.954300
     4397.924200       0.953300
     4398.117600       0.952500
     4398.311000       0.951900
     4398.504500       0.951500
     4398.698000       0.951200
     4398.891500       0.951100
     4399.085000       0.951200
     4399.278500       0.951500
     4399.472100       0.951900
     4399.665600       0.952400
     4399.859200       0.953100
     4400.052800       0.953800
     4400.246400       0.954500
     4400.440000       0.955200
     4400.633700       0.955700
     4400.827400       0.956200
     4401.021000       0.956400
     4401.214700       0.956500
     4401.408500       0.956200
     4401.602200       0.955600
     4401.795900       0.954800
     4401.989700       0.953800
     4402.183500       0.952600
     4402.377300       0.951500
     4402.571100       0.950300
     4402.764900       0.949300
     4402.958800       0.948500
     4403.152700       0.947900
     4403.346500       0.947600
     4403.540400       0.947700
     4403.734400       0.948200
     4403.928300       0.949000
     4404.122300       0.950000
     4404.316200       0.951100
     4404.510200       0.952400
     4404.704200       0.953700
     4404.898200       0.955100
     4405.092300       0.956300
     4405.286300       0.957500
     4405.480400       0.958500
     4405.674500       0.959300
     4405.868600       0.959900
     4406.062700       0.960300
     4406.256900       0.960500
     4406.451000       0.960400
     4406.645200       0.960100
     4406.839400       0.959600
     4407.033600       0.958700
     4407.227900       0.957600
     4407.422100       0.956200
     4407.616400       0.954600
     4407.810600       0.952800
     4408.004900       0.950900
     4408.199300       0.949100
     4408.393600       0.947300
     4408.587900       0.945700
     4408.782300       0.944400
     4408.976700       0.943300
     4409.171100       0.942700
     4409.365500       0.942500
     4409.559900       0.942700
     4409.754400       0.943200
     4409.948800       0.944100
     4410.143300       0.945100
     4410.337800       0.946200
     4410.532400       0.947400
     4410.726900       0.948600
     4410.921400       0.949700
     4411.116000       0.950600
     4411.310600       0.951400
     4411.505200       0.951900
     4411.699800       0.952200
     4411.894500       0.952300
     4412.089100       0.952100
     4412.283800       0.951800
     4412.478500       0.951300
     4412.673200       0.950600
     4412.867900       0.949600
     4413.062700       0.948500
     4413.257400       0.947200
     4413.452200       0.945700
     4413.647000       0.944200
     4413.841800       0.942600
     4414.036600       0.941200
     4414.231500       0.939800
     4414.426300       0.938600
     4414.621200       0.937600
     4414.816100       0.936900
     4415.011000       0.936600
     4415.206000       0.936600
     4415.400900       0.937000
     4415.595900       0.937700
     4415.790900       0.938600
     4415.985900       0.939600
     4416.180900       0.940600
     4416.375900       0.941600
     4416.571000       0.942500
     4416.766000       0.943200
     4416.961100       0.943700
     4417.156200       0.943900
     4417.351400       0.943700
     4417.546500       0.943300
     4417.741700       0.942700
     4417.936800       0.941900
     4418.132000       0.940900
     4418.327200       0.939700
     4418.522400       0.938500
     4418.717700       0.937100
     4418.912900       0.935700
     4419.108200       0.934300
     4419.303500       0.932900
     4419.498800       0.931700
     4419.694200       0.930600
     4419.889500       0.929700
     4420.084900       0.929000
     4420.280200       0.928800
     4420.475600       0.928900
     4420.671100       0.929500
     4420.866500       0.930600
     4421.061900       0.932200
     4421.257400       0.934300
     4421.452900       0.936600
     4421.648400       0.939000
     4421.843900       0.941400
     4422.039400       0.943600
     4422.235000       0.945500
     4422.430600       0.946800
     4422.626200       0.947400
     4422.821800       0.947300
     4423.017400       0.946100
     4423.213000       0.944200
     4423.408700       0.941700
     4423.604400       0.938800
     4423.800000       0.935700
     4423.995800       0.932500
     4424.191500       0.929400
     4424.387200       0.926800
     4424.583000       0.924600
     4424.778800       0.923200
     4424.974600       0.922600
     4425.170400       0.922700
     4425.366200       0.923500
     4425.562000       0.924800
     4425.757900       0.926300
     4425.953800       0.928000
     4426.149700       0.929800
     4426.345600       0.931300
     4426.541500       0.932600
     4426.737500       0.933500
     4426.933500       0.933800
     4427.129400       0.933600
     4427.325500       0.933000
     4427.521500       0.932100
     4427.717500       0.930900
     4427.913600       0.929600
     4428.109600       0.928300
     4428.305700       0.927000
     4428.501800       0.925800
     4428.698000       0.924900
     4428.894100       0.924200
     4429.090300       0.923800
     4429.286400       0.923700
     4429.482600       0.923700
     4429.678800       0.923800
     4429.875100       0.924100
     4430.071300       0.924400
     4430.267600       0.924800
     4430.463900       0.925100
     4430.660200       0.925400
     4430.856500       0.925500
     4431.052800       0.925600
     4431.249200       0.925600
     4431.445500       0.925500
     4431.641900       0.925400
     4431.838300       0.925200
     4432.034700       0.925000
     4432.231200       0.924800
     4432.427600       0.924500
     4432.624100       0.924300
     4432.820600       0.924000
     4433.017100       0.923700
     4433.213600       0.923500
     4433.410200       0.923100
     4433.606700       0.922700
     4433.803300       0.922200
     4433.999900       0.921500
     4434.196500       0.920700
     4434.393200       0.919800
     4434.589800       0.918700
     4434.786500       0.917400
     4434.983100       0.915900
     4435.179800       0.914400
     4435.376600       0.912900
     4435.573300       0.911500
     4435.770000       0.910300
     4435.966800       0.909300
     4436.163600       0.908600
     4436.360400       0.908300
     4436.557200       0.908500
     4436.754100       0.909100
     4436.950900       0.910200
     4437.147800       0.911700
     4437.344700       0.913300
     4437.541600       0.915000
     4437.738500       0.916800
     4437.935500       0.918400
     4438.132400       0.919800
     4438.329400       0.920900
     4438.526400       0.921500
     4438.723400       0.921700
     4438.920500       0.921400
     4439.117500       0.920700
     4439.314600       0.919700
     4439.511700       0.918500
     4439.708800       0.917300
     4439.905900       0.916000
     4440.103000       0.914800
     4440.300200       0.913700
     4440.497300       0.912800
     4440.694500       0.912300
     4440.891700       0.912100
     4441.089000       0.912100
     4441.286200       0.912300
     4441.483500       0.912700
     4441.680700       0.913200
     4441.878000       0.913800
     4442.075300       0.914500
     4442.272700       0.915200
     4442.470000       0.915900
     4442.667400       0.916500
     4442.864800       0.917100
     4443.062200       0.917500
     4443.259600       0.917900
     4443.457000       0.918000
     4443.654500       0.918100
     4443.851900       0.917900
     4444.049400       0.917600
     4444.246900       0.917000
     4444.444400       0.916200
     4444.642000       0.915200
     4444.839500       0.913900
     4445.037100       0.912500
     4445.234700       0.911000
     4445.432300       0.909400
     4445.629900       0.907900
     4445.827600       0.906400
     4446.025300       0.905100
     4446.222900       0.903900
     4446.420600       0.903000
     4446.618300       0.902300
     4446.816100       0.902000
     4447.013800       0.901800
     4447.211600       0.901800
     4447.409400       0.902000
     4447.607200       0.902300
     4447.805000       0.902700
     4448.002800       0.903100
     4448.200700       0.903600
     4448.398600       0.904000
     4448.596500       0.904400
     4448.794400       0.904700
     4448.992300       0.904900
     4449.190200       0.905000
     4449.388200       0.904900
     4449.586200       0.904700
     4449.784200       0.904400
     4449.982200       0.903900
     4450.180200       0.903100
     4450.378300       0.902200
     4450.576300       0.901000
     4450.774400       0.899700
     4450.972500       0.898300
     4451.170700       0.896900
     4451.368800       0.895500
     4451.567000       0.894200
     4451.765100       0.893200
     4451.963300       0.892300
     4452.161500       0.891900
     4452.359800       0.891800
     4452.558000       0.892200
     4452.756300       0.893000
     4452.954500       0.894100
     4453.152800       0.895300
     4453.351100       0.896700
     4453.549500       0.898200
     4453.747800       0.899500
     4453.946200       0.900700
     4454.144600       0.901700
     4454.343000       0.902300
     4454.541400       0.902400
     4454.739800       0.902300
     4454.938300       0.901700
     4455.136800       0.900900
     4455.335300       0.899800
     4455.533800       0.898500
     4455.732300       0.897100
     4455.930800       0.895600
     4456.129400       0.893900
     4456.328000       0.892300
     4456.526600       0.890700
     4456.725200       0.889200
     4456.923800       0.887800
     4457.122500       0.886500
     4457.321100       0.885400
     4457.519800       0.884600
     4457.718500       0.884000
     4457.917300       0.883800
     4458.116000       0.883900
     4458.314800       0.884400
     4458.513500       0.885300
     4458.712300       0.886600
     4458.911100       0.888100
     4459.110000       0.889700
     4459.308800       0.891300
     4459.507700       0.892900
     4459.706600       0.894200
     4459.905500       0.895300
     4460.104400       0.895900
     4460.303300       0.896000
     4460.502300       0.895600
     4460.701200       0.894600
     4460.900200       0.893300
     4461.099200       0.891700
     4461.298200       0.890000
     4461.497300       0.888200
     4461.696300       0.886600
     4461.895400       0.885200
     4462.094500       0.884100
     4462.293600       0.883500
     4462.492700       0.883400
     4462.691900       0.883900
     4462.891100       0.884700
     4463.090200       0.885800
     4463.289400       0.887100
     4463.488700       0.888500
     4463.687900       0.889900
     4463.887200       0.891200
     4464.086400       0.892300
     4464.285700       0.893200
     4464.485000       0.893600
     4464.684300       0.893800
     4464.883700       0.893600
     4465.083100       0.893200
     4465.282400       0.892500
     4465.481800       0.891700
     4465.681200       0.890800
     4465.880700       0.889800
     4466.080100       0.888700
     4466.279600       0.887700
     4466.479100       0.886700
     4466.678600       0.885800
     4466.878100       0.884900
     4467.077600       0.884000
     4467.277200       0.883200
     4467.476800       0.882300
     4467.676400       0.881500
     4467.876000       0.880600
     4468.075600       0.879800
     4468.275200       0.878900
     4468.474900       0.878000
     4468.674600       0.877100
     4468.874300       0.876200
     4469.074000       0.875500
     4469.273700       0.874900
     4469.473500       0.874400
     4469.673300       0.874200
     4469.873100       0.874200
     4470.072900       0.874400
     4470.272700       0.875000
     4470.472500       0.876000
     4470.672400       0.877200
     4470.872300       0.878600
     4471.072200       0.880100
     4471.272100       0.881600
     4471.472000       0.882900
     4471.672000       0.884100
     4471.871900       0.884900
     4472.071900       0.885300
     4472.271900       0.885300
     4472.471900       0.884600
     4472.672000       0.883500
     4472.872000       0.882000
     4473.072100       0.880300
     4473.272200       0.878500
     4473.472300       0.876600
     4473.672400       0.874900
     4473.872600       0.873400
     4474.072700       0.872300
     4474.272900       0.871600
     4474.473100       0.871500
     4474.673300       0.871900
     4474.873600       0.872700
     4475.073800       0.873700
     4475.274100       0.875000
     4475.474400       0.876200
     4475.674700       0.877500
     4475.875000       0.878600
     4476.075400       0.879500
     4476.275700       0.880100
     4476.476100       0.880200
     4476.676500       0.880000
     4476.876900       0.879400
     4477.077400       0.878600
     4477.277800       0.877600
     4477.478300       0.876400
     4477.678800       0.875200
     4477.879300       0.874000
     4478.079800       0.872800
     4478.280300       0.871700
     4478.480900       0.870800
     4478.681500       0.870100
     4478.882100       0.869600
     4479.082700       0.869200
     4479.283300       0.869000
     4479.484000       0.869000
     4479.684600       0.869100
     4479.885300       0.869400
     4480.086000       0.869900
     4480.286700       0.870500
     4480.487500       0.871300
     4480.688200       0.872200
     4480.889000       0.873100
     4481.089800       0.874100
     4481.290600       0.875100
     4481.491400       0.876000
     4481.692300       0.876900
     4481.893200       0.877600
     4482.094000       0.878100
     4482.294900       0.878300
     4482.495900       0.878300
     4482.696800       0.878100
     4482.897700       0.877600
     4483.098700       0.877000
     4483.299700       0.876100
     4483.500700       0.875000
     4483.701700       0.873800
     4483.902800       0.872400
     4484.103900       0.870900
     4484.304900       0.869300
     4484.506000       0.867600
     4484.707100       0.865900
     4484.908300       0.864200
     4485.109400       0.862600
     4485.310600       0.861100
     4485.511800       0.859900
     4485.713000       0.858900
     4485.914200       0.858200
     4486.115500       0.857900
     4486.316700       0.858000
     4486.518000       0.858600
     4486.719300       0.859600
     4486.920600       0.861000
     4487.122000       0.862500
     4487.323300       0.864200
     4487.524700       0.865900
     4487.726100       0.867600
     4487.927500       0.869100
     4488.128900       0.870400
     4488.330300       0.871400
     4488.531800       0.872000
     4488.733300       0.872300
     4488.934800       0.872200
     4489.136300       0.871900
     4489.337800       0.871300
     4489.539400       0.870500
     4489.740900       0.869600
     4489.942500       0.868600
     4490.144100       0.867600
     4490.345800       0.866600
     4490.547400       0.865600
     4490.749100       0.864700
     4490.950700       0.863900
     4491.152400       0.863100
     4491.354100       0.862500
     4491.555900       0.861900
     4491.757600       0.861500
     4491.959400       0.861300
     4492.161200       0.861200
     4492.363000       0.861300
     4492.564800       0.861600
     4492.766600       0.862100
     4492.968500       0.862600
     4493.170400       0.863200
     4493.372300       0.863800
     4493.574200       0.864400
     4493.776100       0.865000
     4493.978100       0.865400
     4494.180000       0.865700
     4494.382000       0.865800
     4494.584000       0.865600
     4494.786000       0.865300
     4494.988100       0.864800
     4495.190100       0.864300
     4495.392200       0.863700
     4495.594300       0.863200
     4495.796400       0.862700
     4495.998600       0.862300
     4496.200700       0.862100
     4496.402900       0.862100
     4496.605100       0.862400
     4496.807300       0.862900
     4497.009500       0.863600
     4497.211700       0.864300
     4497.414000       0.865200
     4497.616300       0.866000
     4497.818600       0.866800
     4498.020900       0.867400
     4498.223200       0.868000
     4498.425600       0.868200
     4498.627900       0.868300
     4498.830300       0.868100
     4499.032700       0.867700
     4499.235100       0.867100
     4499.437600       0.866400
     4499.640000       0.865500
     4499.842500       0.864600
     4500.045000       0.863700
     4500.247500       0.862800
     4500.450000       0.861900
     4500.652600       0.861000
     4500.855200       0.860200
     4501.057700       0.859500
     4501.260400       0.858800
     4501.463000       0.858200
     4501.665600       0.857600
     4501.868300       0.857100
     4502.071000       0.856600
     4502.273600       0.856100
     4502.476400       0.855700
     4502.679100       0.855300
     4502.881800       0.854900
     4503.084600       0.854500
     4503.287400       0.854100
     4503.490200       0.853700
     4503.693000       0.853300
     4503.895900       0.852800
     4504.098700       0.852300
     4504.301600       0.851800
     4504.504500       0.851200
     4504.707400       0.850600
     4504.910400       0.849900
     4505.113300       0.849300
     4505.316300       0.848700
     4505.519300       0.848100
     4505.722300       0.847800
     4505.925300       0.847500
     4506.128300       0.847500
     4506.331400       0.847700
     4506.534500       0.848200
     4506.737600       0.849000
     4506.940700       0.850000
     4507.143800       0.851200
     4507.347000       0.852400
     4507.550100       0.853700
     4507.753300       0.854800
     4507.956500       0.855700
     4508.159800       0.856400
     4508.363000       0.856800
     4508.566300       0.856700
     4508.769600       0.856100
     4508.972900       0.855200
     4509.176200       0.853800
     4509.379500       0.852300
     4509.582900       0.850500
     4509.786200       0.848700
     4509.989600       0.846900
     4510.193000       0.845300
     4510.396500       0.843800
     4510.599900       0.842500
     4510.803400       0.841600
     4511.006900       0.841100
     4511.210400       0.840800
     4511.413900       0.840800
     4511.617400       0.840900
     4511.821000       0.841200
     4512.024500       0.841600
     4512.228100       0.842100
     4512.431700       0.842600
     4512.635400       0.843100
     4512.839000       0.843600
     4513.042700       0.844000
     4513.246400       0.844300
     4513.450100       0.844600
     4513.653800       0.844700
     4513.857500       0.844900
     4514.061300       0.844900
     4514.265100       0.844800
     4514.468900       0.844700
     4514.672700       0.844500
     4514.876500       0.844100
     4515.080400       0.843700
     4515.284200       0.843300
     4515.488100       0.842700
     4515.692000       0.842200
     4515.896000       0.841600
     4516.099900       0.841000
     4516.303900       0.840400
     4516.507800       0.839900
     4516.711800       0.839400
     4516.915800       0.838900
     4517.119900       0.838500
     4517.323900       0.838200
     4517.528000       0.838000
     4517.732100       0.837800
     4517.936200       0.837800
     4518.140300       0.837800
     4518.344500       0.838000
     4518.548600       0.838300
     4518.752800       0.838700
     4518.957000       0.839300
     4519.161200       0.839900
     4519.365500       0.840600
     4519.569700       0.841300
     4519.774000       0.842000
     4519.978300       0.842600
     4520.182600       0.843000
     4520.386900       0.843300
     4520.591300       0.843400
     4520.795700       0.843300
     4521.000000       0.842900
     4521.204400       0.842200
     4521.408900       0.841300
     4521.613300       0.840300
     4521.817800       0.839200
     4522.022200       0.838000
     4522.226700       0.836900
     4522.431300       0.835700
     4522.635800       0.834700
     4522.840300       0.833900
     4523.044900       0.833200
     4523.249500       0.832700
     4523.454100       0.832300
     4523.658700       0.832000
     4523.863400       0.831900
     4524.068000       0.831800
     4524.272700       0.831800
     4524.477400       0.831800
     4524.682100       0.831800
     4524.886900       0.831800
     4525.091600       0.831800
     4525.296400       0.831700
     4525.501200       0.831600
     4525.706000       0.831400
     4525.910800       0.831100
     4526.115700       0.830800
     4526.320600       0.830500
     4526.525400       0.830000
     4526.730300       0.829500
     4526.935300       0.829000
     4527.140200       0.828300
     4527.345200       0.827700
     4527.550100       0.827000
     4527.755100       0.826500
     4527.960200       0.826000
     4528.165200       0.825800
     4528.370200       0.825700
     4528.575300       0.825900
     4528.780400       0.826500
     4528.985500       0.827400
     4529.190600       0.828700
     4529.395800       0.830300
     4529.600900       0.832100
     4529.806100       0.834000
     4530.011300       0.835900
     4530.216500       0.837600
     4530.421800       0.839200
     4530.627000       0.840400
     4530.832300       0.841200
     4531.037600       0.841500
     4531.242900       0.841100
     4531.448300       0.840300
     4531.653600       0.838900
     4531.859000       0.837300
     4532.064400       0.835500
     4532.269800       0.833500
     4532.475200       0.831600
     4532.680600       0.829800
     4532.886100       0.828200
     4533.091600       0.827000
     4533.297100       0.826100
     4533.502600       0.825700
     4533.708100       0.825600
     4533.913700       0.825700
     4534.119200       0.826100
     4534.324800       0.826600
     4534.530400       0.827100
     4534.736100       0.827700
     4534.941700       0.828200
     4535.147400       0.828700
     4535.353100       0.828900
     4535.558800       0.829100
     4535.764500       0.829100
     4535.970200       0.829000
     4536.176000       0.828800
     4536.381800       0.828700
     4536.587600       0.828500
     4536.793400       0.828300
     4536.999200       0.828200
     4537.205100       0.828100
     4537.411000       0.828200
     4537.616800       0.828200
     4537.822800       0.828300
     4538.028700       0.828400
     4538.234600       0.828400
     4538.440600       0.828200
     4538.646600       0.827900
     4538.852600       0.827400
     4539.058600       0.826600
     4539.264600       0.825600
     4539.470700       0.824200
     4539.676800       0.822600
     4539.882900       0.820800
     4540.089000       0.819000
     4540.295100       0.817300
     4540.501300       0.815800
     4540.707400       0.814600
     4540.913600       0.813800
     4541.119800       0.813500
     4541.326100       0.813800
     4541.532300       0.814800
     4541.738600       0.816300
     4541.944900       0.818300
     4542.151200       0.820600
     4542.357500       0.823100
     4542.563800       0.825500
     4542.770200       0.827800
     4542.976600       0.829800
     4543.183000       0.831400
     4543.389400       0.832500
     4543.595800       0.832800
     4543.802300       0.832600
     4544.008700       0.831900
     4544.215200       0.830700
     4544.421700       0.829200
     4544.628200       0.827500
     4544.834800       0.825700
     4545.041400       0.823800
     4545.247900       0.822000
     4545.454500       0.820400
     4545.661200       0.819100
     4545.867800       0.818000
     4546.074500       0.817100
     4546.281100       0.816500
     4546.487800       0.816100
     4546.694600       0.815900
     4546.901300       0.816000
     4547.108000       0.816200
     4547.314800       0.816600
     4547.521600       0.817100
     4547.728400       0.817800
     4547.935200       0.818700
     4548.142100       0.819600
     4548.348900       0.820500
     4548.555800       0.821400
     4548.762700       0.822200
     4548.969700       0.822900
     4549.176600       0.823400
     4549.383600       0.823700
     4549.590500       0.823800
     4549.797500       0.823500
     4550.004600       0.823000
     4550.211600       0.822300
     4550.418600       0.821300
     4550.625700       0.820100
     4550.832800       0.818700
     4551.039900       0.817100
     4551.247000       0.815400
     4551.454200       0.813600
     4551.661400       0.811700
     4551.868500       0.809700
     4552.075700       0.807700
     4552.283000       0.805800
     4552.490200       0.803900
     4552.697500       0.802100
     4552.904800       0.800400
     4553.112100       0.799000
     4553.319400       0.797800
     4553.526700       0.796900
     4553.734100       0.796400
     4553.941400       0.796200
     4554.148800       0.796400
     4554.356200       0.796800
     4554.563700       0.797500
     4554.771100       0.798400
     4554.978600       0.799500
     4555.186100       0.800600
     4555.393600       0.801900
     4555.601100       0.803100
     4555.808700       0.804300
     4556.016200       0.805500
     4556.223800       0.806500
     4556.431400       0.807500
     4556.639000       0.808300
     4556.846700       0.808900
     4557.054300       0.809400
     4557.262000       0.809700
     4557.469700       0.809700
     4557.677400       0.809500
     4557.885100       0.809000
     4558.092900       0.808300
     4558.300700       0.807300
     4558.508500       0.806100
     4558.716300       0.804800
     4558.924100       0.803500
     4559.131900       0.802100
     4559.339800       0.800700
     4559.547700       0.799500
     4559.755600       0.798300
     4559.963500       0.797400
     4560.171500       0.796700
     4560.379400       0.796100
     4560.587400       0.795800
     4560.795400       0.795500
     4561.003400       0.795400
     4561.211500       0.795300
     4561.419500       0.795200
     4561.627600       0.795000
     4561.835700       0.794800
     4562.043800       0.794500
     4562.251900       0.794000
     4562.460100       0.793500
     4562.668200       0.792800
     4562.876400       0.792200
     4563.084600       0.791600
     4563.292900       0.791000
     4563.501100       0.790500
     4563.709400       0.790200
     4563.917700       0.790100
     4564.126000       0.790200
     4564.334300       0.790600
     4564.542600       0.791200
     4564.751000       0.791900
     4564.959400       0.792700
     4565.167800       0.793600
     4565.376200       0.794400
     4565.584600       0.795100
     4565.793100       0.795600
     4566.001600       0.795900
     4566.210000       0.795900
     4566.418600       0.795600
     4566.627100       0.794900
     4566.835600       0.794000
     4567.044200       0.792900
     4567.252800       0.791700
     4567.461400       0.790300
     4567.670000       0.789000
     4567.878700       0.787600
     4568.087300       0.786200
     4568.296000       0.785000
     4568.504700       0.784000
     4568.713500       0.783100
     4568.922200       0.782400
     4569.131000       0.781800
     4569.339700       0.781300
     4569.548500       0.780900
     4569.757300       0.780700
     4569.966200       0.780500
     4570.175000       0.780400
     4570.383900       0.780400
     4570.592800       0.780500
     4570.801700       0.780600
     4571.010700       0.780800
     4571.219600       0.781100
     4571.428600       0.781400
     4571.637600       0.781800
     4571.846600       0.782300
     4572.055600       0.782900
     4572.264600       0.783500
     4572.473700       0.784200
     4572.682800       0.785000
     4572.891900       0.785800
     4573.101000       0.786600
     4573.310200       0.787300
     4573.519300       0.787900
     4573.728500       0.788400
     4573.937700       0.788700
     4574.146900       0.788800
     4574.356200       0.788600
     4574.565400       0.788100
     4574.774700       0.787200
     4574.984000       0.786000
     4575.193300       0.784600
     4575.402600       0.783000
     4575.612000       0.781400
     4575.821400       0.779700
     4576.030800       0.778000
     4576.240200       0.776400
     4576.449600       0.775000
     4576.659000       0.773800
     4576.868500       0.772800
     4577.078000       0.772200
     4577.287500       0.771800
     4577.497000       0.771600
     4577.706600       0.771500
     4577.916100       0.771600
     4578.125700       0.771800
     4578.335300       0.772100
     4578.544900       0.772400
     4578.754600       0.772800
     4578.964200       0.773100
     4579.173900       0.773500
     4579.383600       0.773800
     4579.593300       0.774200
     4579.803100       0.774700
     4580.012800       0.775200
     4580.222600       0.775700
     4580.432400       0.776400
     4580.642200       0.777200
     4580.852000       0.778000
     4581.061900       0.779000
     4581.271800       0.780100
     4581.481700       0.781200
     4581.691600       0.782100
     4581.901500       0.783000
     4582.111400       0.783600
     4582.321400       0.783900
     4582.531400       0.783900
     4582.741400       0.783400
     4582.951400       0.782500
     4583.161500       0.781000
     4583.371500       0.779000
     4583.581600       0.776700
     4583.791700       0.774100
     4584.001800       0.771500
     4584.212000       0.768800
     4584.422100       0.766200
     4584.632300       0.763800
     4584.842500       0.761700
     4585.052700       0.760000
     4585.263000       0.758800
     4585.473200       0.758100
     4585.683500       0.757800
     4585.893800       0.757800
     4586.104100       0.758100
     4586.314400       0.758500
     4586.524800       0.759100
     4586.735200       0.759600
     4586.945600       0.760200
     4587.156000       0.760600
     4587.366400       0.760900
     4587.576800       0.761100
     4587.787300       0.761100
     4587.997800       0.761100
     4588.208300       0.761000
     4588.418800       0.760900
     4588.629400       0.760800
     4588.839900       0.760900
     4589.050500       0.761000
     4589.261100       0.761200
     4589.471800       0.761600
     4589.682400       0.762100
     4589.893100       0.762700
     4590.103700       0.763200
     4590.314400       0.763700
     4590.525200       0.764100
     4590.735900       0.764300
     4590.946700       0.764300
     4591.157400       0.764000
     4591.368200       0.763400
     4591.579000       0.762400
     4591.789900       0.761100
     4592.000700       0.759500
     4592.211600       0.757900
     4592.422500       0.756200
     4592.633400       0.754500
     4592.844300       0.753000
     4593.055300       0.751700
     4593.266300       0.750600
     4593.477300       0.750000
     4593.688300       0.749900
     4593.899300       0.750100
     4594.110400       0.750700
     4594.321400       0.751400
     4594.532500       0.752400
     4594.743600       0.753400
     4594.954700       0.754300
     4595.165900       0.755200
     4595.377100       0.755900
     4595.588200       0.756300
     4595.799400       0.756300
     4596.010700       0.756100
     4596.221900       0.755600
     4596.433200       0.754900
     4596.644400       0.754000
     4596.855800       0.753000
     4597.067100       0.751900
     4597.278400       0.750800
     4597.489800       0.749700
     4597.701100       0.748700
     4597.912500       0.747900
     4598.124000       0.747100
     4598.335400       0.746400
     4598.546900       0.745800
     4598.758300       0.745300
     4598.969800       0.744900
     4599.181300       0.744500
     4599.392900       0.744100
     4599.604400       0.743800
     4599.816000       0.743400
     4600.027600       0.743100
     4600.239200       0.742800
     4600.450800       0.742500
     4600.662500       0.742200
     4600.874200       0.741900
     4601.085900       0.741600
     4601.297600       0.741300
     4601.509300       0.741100
     4601.721000       0.740900
     4601.932800       0.740700
     4602.144600       0.740600
     4602.356400       0.740500
     4602.568200       0.740400
     4602.780100       0.740300
     4602.991900       0.740200
     4603.203800       0.740100
     4603.415700       0.739900
     4603.627700       0.739700
     4603.839600       0.739500
     4604.051600       0.739200
     4604.263500       0.738900
     4604.475600       0.738500
     4604.687600       0.738100
     4604.899600       0.737700
     4605.111700       0.737200
     4605.323800       0.736800
     4605.535900       0.736500
     4605.748000       0.736100
     4605.960100       0.735900
     4606.172300       0.735700
     4606.384400       0.735600
     4606.596600       0.735600
     4606.808900       0.735800
     4607.021100       0.736000
     4607.233400       0.736300
     4607.445600       0.736800
     4607.657900       0.737300
     4607.870200       0.737900
     4608.082600       0.738700
     4608.294900       0.739500
     4608.507300       0.740400
     4608.719700       0.741400
     4608.932100       0.742400
     4609.144500       0.743200
     4609.357000       0.743900
     4609.569500       0.744300
     4609.782000       0.744500
     4609.994500       0.744300
     4610.207000       0.743600
     4610.419500       0.742500
     4610.632100       0.740900
     4610.844700       0.738800
     4611.057300       0.736400
     4611.269900       0.733900
     4611.482600       0.731300
     4611.695300       0.728800
     4611.907900       0.726500
     4612.120700       0.724600
     4612.333400       0.723200
     4612.546100       0.722400
     4612.758900       0.722300
     4612.971700       0.722900
     4613.184500       0.724000
     4613.397300       0.725400
     4613.610100       0.727200
     4613.823000       0.729100
     4614.035900       0.731100
     4614.248800       0.733100
     4614.461700       0.734900
     4614.674700       0.736300
     4614.887600       0.737500
     4615.100600       0.738200
     4615.313600       0.738700
     4615.526600       0.738800
     4615.739700       0.738800
     4615.952700       0.738600
     4616.165800       0.738200
     4616.378900       0.737800
     4616.592000       0.737300
     4616.805200       0.736800
     4617.018300       0.736400
     4617.231500       0.736000
     4617.444700       0.735600
     4617.657900       0.735200
     4617.871200       0.734800
     4618.084400       0.734400
     4618.297700       0.733900
     4618.511000       0.733300
     4618.724300       0.732700
     4618.937600       0.732000
     4619.151000       0.731200
     4619.364400       0.730200
     4619.577800       0.729200
     4619.791200       0.728200
     4620.004600       0.727200
     4620.218100       0.726200
     4620.431500       0.725300
     4620.645000       0.724400
     4620.858600       0.723700
     4621.072100       0.723100
     4621.285600       0.722700
     4621.499200       0.722400
     4621.712800       0.722200
     4621.926400       0.722100
     4622.140100       0.722200
     4622.353700       0.722300
     4622.567400       0.722500
     4622.781100       0.722800
     4622.994800       0.723000
     4623.208500       0.723300
     4623.422300       0.723600
     4623.636000       0.723900
     4623.849800       0.724100
     4624.063600       0.724200
     4624.277500       0.724200
     4624.491300       0.724000
     4624.705200       0.723600
     4624.919100       0.723000
     4625.133000       0.722100
     4625.346900       0.721000
     4625.560800       0.719500
     4625.774800       0.717800
     4625.988800       0.716000
     4626.202800       0.714000
     4626.416800       0.712100
     4626.630900       0.710300
     4626.845000       0.708600
     4627.059000       0.707200
     4627.273100       0.706100
     4627.487300       0.705500
     4627.701400       0.705300
     4627.915600       0.705500
     4628.129800       0.706100
     4628.344000       0.706900
     4628.558200       0.708000
     4628.772400       0.709100
     4628.986700       0.710300
     4629.201000       0.711500
     4629.415300       0.712500
     4629.629600       0.713300
     4629.844000       0.713900
     4630.058300       0.714300
     4630.272700       0.714400
     4630.487100       0.714300
     4630.701600       0.713900
     4630.916000       0.713500
     4631.130500       0.712800
     4631.344900       0.712000
     4631.559400       0.711100
     4631.774000       0.710000
     4631.988500       0.708900
     4632.203100       0.707700
     4632.417700       0.706600
     4632.632300       0.705400
     4632.846900       0.704300
     4633.061500       0.703200
     4633.276200       0.702300
     4633.490900       0.701600
     4633.705600       0.701100
     4633.920300       0.700800
     4634.135000       0.700700
     4634.349800       0.701000
     4634.564600       0.701400
     4634.779400       0.701900
     4634.994200       0.702600
     4635.209000       0.703300
     4635.423900       0.704100
     4635.638800       0.704900
     4635.853700       0.705700
     4636.068600       0.706300
     4636.283600       0.706900
     4636.498500       0.707300
     4636.713500       0.707600
     4636.928500       0.707800
     4637.143500       0.707900
     4637.358600       0.707800
     4637.573600       0.707700
     4637.788700       0.707400
     4638.003800       0.707000
     4638.218900       0.706500
     4638.434100       0.705900
     4638.649200       0.705200
     4638.864400       0.704400
     4639.079600       0.703600
     4639.294800       0.702800
     4639.510100       0.701900
     4639.725300       0.701100
     4639.940600       0.700300
     4640.155900       0.699500
     4640.371200       0.698900
     4640.586600       0.698300
     4640.801900       0.697800
     4641.017300       0.697400
     4641.232700       0.697100
     4641.448100       0.696900
     4641.663600       0.696800
     4641.879000       0.696700
     4642.094500       0.696700
     4642.310000       0.696800
     4642.525500       0.696900
     4642.741100       0.697100
     4642.956600       0.697300
     4643.172200       0.697500
     4643.387800       0.697800
     4643.603400       0.698000
     4643.819100       0.698200
     4644.034700       0.698400
     4644.250400       0.698500
     4644.466100       0.698600
     4644.681800       0.698500
     4644.897600       0.698400
     4645.113300       0.698200
     4645.329100       0.697900
     4645.544900       0.697500
     4645.760700       0.697100
     4645.976600       0.696600
     4646.192400       0.696000
     4646.408300       0.695400
     4646.624200       0.694800
     4646.840100       0.694100
     4647.056100       0.693400
     4647.272100       0.692700
     4647.488000       0.692000
     4647.704000       0.691300
     4647.920100       0.690700
     4648.136100       0.690200
     4648.352200       0.689700
     4648.568200       0.689300
     4648.784300       0.689100
     4649.000500       0.688900
     4649.216600       0.688900
     4649.432800       0.689100
     4649.649000       0.689300
     4649.865200       0.689500
     4650.081400       0.689700
     4650.297600       0.689900
     4650.513900       0.690100
     4650.730200       0.690100
     4650.946500       0.689900
     4651.162800       0.689600
     4651.379100       0.689100
     4651.595500       0.688400
     4651.811900       0.687600
     4652.028300       0.686700
     4652.244700       0.685800
     4652.461200       0.684900
     4652.677600       0.684200
     4652.894100       0.683600
     4653.110600       0.683300
     4653.327100       0.683200
     4653.543700       0.683400
     4653.760200       0.683800
     4653.976800       0.684500
     4654.193400       0.685400
     4654.410100       0.686400
     4654.626700       0.687400
     4654.843400       0.688500
     4655.060100       0.689600
     4655.276800       0.690600
     4655.493500       0.691500
     4655.710200       0.692200
     4655.927000       0.692700
     4656.143800       0.693100
     4656.360600       0.693400
     4656.577400       0.693500
     4656.794300       0.693500
     4657.011100       0.693400
     4657.228000       0.693100
     4657.444900       0.692800
     4657.661900       0.692400
     4657.878800       0.691900
     4658.095800       0.691300
     4658.312800       0.690700
     4658.529800       0.690200
     4658.746800       0.689600
     4658.963800       0.689100
     4659.180900       0.688600
     4659.398000       0.688300
     4659.615100       0.688000
     4659.832200       0.687900
     4660.049400       0.688000
     4660.266600       0.688200
     4660.483800       0.688400
     4660.701000       0.688700
     4660.918200       0.689000
     4661.135500       0.689200
     4661.352700       0.689300
     4661.570000       0.689300
     4661.787300       0.689000
     4662.004700       0.688500
     4662.222000       0.687700
     4662.439400       0.686600
     4662.656800       0.685400
     4662.874200       0.684100
     4663.091600       0.682700
     4663.309100       0.681300
     4663.526600       0.679900
     4663.744100       0.678700
     4663.961600       0.677700
     4664.179100       0.676900
     4664.396700       0.676400
     4664.614200       0.676100
     4664.831800       0.676100
     4665.049400       0.676300
     4665.267100       0.676700
     4665.484700       0.677200
     4665.702400       0.677800
     4665.920100       0.678500
     4666.137800       0.679200
     4666.355600       0.680000
     4666.573300       0.680700
     4666.791100       0.681400
     4667.008900       0.682100
     4667.226700       0.682700
     4667.444600       0.683300
     4667.662400       0.683900
     4667.880300       0.684400
     4668.098200       0.684800
     4668.316100       0.685100
     4668.534100       0.685400
     4668.752000       0.685600
     4668.970000       0.685700
     4669.188000       0.685700
     4669.406100       0.685600
     4669.624100       0.685500
     4669.842200       0.685300
     4670.060200       0.685100
     4670.278300       0.684800
     4670.496500       0.684400
     4670.714600       0.684000
     4670.932800       0.683500
     4671.151000       0.683100
     4671.369200       0.682500
     4671.587400       0.681900
     4671.805700       0.681300
     4672.023900       0.680700
     4672.242200       0.680100
     4672.460500       0.679400
     4672.678800       0.678800
     4672.897200       0.678100
     4673.115600       0.677400
     4673.334000       0.676800
     4673.552400       0.676300
     4673.770800       0.675800
     4673.989200       0.675600
     4674.207700       0.675500
     4674.426200       0.675700
     4674.644700       0.676100
     4674.863300       0.676900
     4675.081800       0.678000
     4675.300400       0.679500
     4675.519000       0.681200
     4675.737600       0.683100
     4675.956200       0.685100
     4676.174900       0.686900
     4676.393600       0.688600
     4676.612300       0.690000
     4676.831000       0.690900
     4677.049700       0.691200
     4677.268500       0.690900
     4677.487300       0.689900
     4677.706100       0.688100
     4677.924900       0.685900
     4678.143700       0.683300
     4678.362600       0.680500
     4678.581500       0.677600
     4678.800400       0.674800
     4679.019300       0.672200
     4679.238200       0.670000
     4679.457200       0.668200
     4679.676200       0.667100
     4679.895200       0.666500
     4680.114200       0.666400
     4680.333200       0.666700
     4680.552300       0.667200
     4680.771400       0.668000
     4680.990500       0.668900
     4681.209600       0.669800
     4681.428800       0.670600
     4681.647900       0.671300
     4681.867100       0.671800
     4682.086300       0.672100
     4682.305600       0.672100
     4682.524800       0.672100
     4682.744100       0.671900
     4682.963400       0.671700
     4683.182700       0.671400
     4683.402000       0.671100
     4683.621400       0.670900
     4683.840700       0.670700
     4684.060100       0.670500
     4684.279600       0.670500
     4684.499000       0.670500
     4684.718400       0.670400
     4684.937900       0.670400
     4685.157400       0.670300
     4685.376900       0.670200
     4685.596500       0.669900
     4685.816000       0.669600
     4686.035600       0.669100
     4686.255200       0.668400
     4686.474800       0.667600
     4686.694500       0.666700
     4686.914100       0.665700
     4687.133800       0.664700
     4687.353500       0.663700
     4687.573200       0.662700
     4687.793000       0.661800
     4688.012800       0.661000
     4688.232500       0.660300
     4688.452300       0.659800
     4688.672200       0.659400
     4688.892000       0.659200
     4689.111900       0.659000
     4689.331800       0.658900
     4689.551700       0.658900
     4689.771600       0.658900
     4689.991600       0.658900
     4690.211500       0.658800
     4690.431500       0.658700
     4690.651500       0.658600
     4690.871600       0.658300
     4691.091600       0.658100
     4691.311700       0.657800
     4691.531800       0.657500
     4691.751900       0.657300
     4691.972000       0.657100
     4692.192200       0.656900
     4692.412400       0.656900
     4692.632600       0.656900
     4692.852800       0.657100
     4693.073000       0.657400
     4693.293300       0.657800
     4693.513600       0.658300
     4693.733900       0.658800
     4693.954200       0.659400
     4694.174500       0.660000
     4694.394900       0.660700
     4694.615300       0.661300
     4694.835700       0.662000
     4695.056100       0.662600
     4695.276600       0.663200
     4695.497000       0.663700
     4695.717500       0.664300
     4695.938000       0.664800
     4696.158500       0.665300
     4696.379100       0.665700
     4696.599700       0.666100
     4696.820300       0.666600
     4697.040900       0.666900
     4697.261500       0.667300
     4697.482100       0.667600
     4697.702800       0.667900
     4697.923500       0.668100
     4698.144200       0.668300
     4698.365000       0.668400
     4698.585700       0.668400
     4698.806500       0.668400
     4699.027300       0.668300
     4699.248100       0.668000
     4699.469000       0.667700
     4699.689800       0.667200
     4699.910700       0.666700
     4700.131600       0.666100
     4700.352500       0.665400
     4700.573500       0.664600
     4700.794400       0.663800
     4701.015400       0.662900
     4701.236400       0.662000
     4701.457500       0.661100
     4701.678500       0.660100
     4701.899600       0.659100
     4702.120700       0.658100
     4702.341800       0.657100
     4702.562900       0.656100
     4702.784000       0.655100
     4703.005200       0.654100
     4703.226400       0.653100
     4703.447600       0.652200
     4703.668900       0.651200
     4703.890100       0.650400
     4704.111400       0.649600
     4704.332700       0.648800
     4704.554000       0.648200
     4704.775300       0.647700
     4704.996700       0.647300
     4705.218100       0.647000
     4705.439500       0.646900
     4705.660900       0.647000
     4705.882400       0.647300
     4706.103800       0.647800
     4706.325300       0.648500
     4706.546800       0.649300
     4706.768300       0.650200
     4706.989900       0.651100
     4707.211400       0.652000
     4707.433000       0.652800
     4707.654600       0.653500
     4707.876300       0.654100
     4708.097900       0.654400
     4708.319600       0.654500
     4708.541300       0.654400
     4708.763000       0.654100
     4708.984700       0.653600
     4709.206500       0.653000
     4709.428300       0.652400
     4709.650100       0.651700
     4709.871900       0.651000
     4710.093700       0.650400
     4710.315600       0.649800
     4710.537500       0.649300
     4710.759400       0.648900
     4710.981300       0.648600
     4711.203200       0.648400
     4711.425200       0.648200
     4711.647200       0.648100
     4711.869200       0.648000
     4712.091200       0.647900
     4712.313300       0.647800
     4712.535300       0.647700
     4712.757400       0.647500
     4712.979500       0.647400
     4713.201700       0.647200
     4713.423800       0.647000
     4713.646000       0.646800
     4713.868200       0.646500
     4714.090400       0.646200
     4714.312700       0.645800
     4714.534900       0.645400
     4714.757200       0.645000
     4714.979500       0.644500
     4715.201800       0.644000
     4715.424200       0.643500
     4715.646500       0.643000
     4715.868900       0.642400
     4716.091300       0.641900
     4716.313700       0.641400
     4716.536200       0.640900
     4716.758600       0.640500
     4716.981100       0.640200
     4717.203600       0.639900
     4717.426200       0.639700
     4717.648700       0.639500
     4717.871300       0.639400
     4718.093900       0.639400
     4718.316500       0.639300
     4718.539100       0.639300
     4718.761800       0.639300
     4718.984500       0.639300
     4719.207200       0.639400
     4719.429900       0.639400
     4719.652600       0.639300
     4719.875400       0.639300
     4720.098200       0.639200
     4720.321000       0.639100
     4720.543800       0.638900
     4720.766700       0.638700
     4720.989500       0.638400
     4721.212400       0.638100
     4721.435300       0.637700
     4721.658200       0.637200
     4721.881200       0.636600
     4722.104200       0.636000
     4722.327200       0.635300
     4722.550200       0.634600
     4722.773200       0.633900
     4722.996300       0.633100
     4723.219300       0.632400
     4723.442400       0.631600
     4723.665600       0.630900
     4723.888700       0.630300
     4724.111900       0.629700
     4724.335000       0.629100
     4724.558300       0.628600
     4724.781500       0.628300
     4725.004700       0.628000
     4725.228000       0.627800
     4725.451300       0.627800
     4725.674600       0.627900
     4725.897900       0.628200
     4726.121300       0.628600
     4726.344600       0.629200
     4726.568000       0.629800
     4726.791500       0.630400
     4727.014900       0.631000
     4727.238300       0.631500
     4727.461800       0.631900
     4727.685300       0.632000
     4727.908800       0.631900
     4728.132400       0.631400
     4728.356000       0.630600
     4728.579500       0.629600
     4728.803100       0.628200
     4729.026800       0.626800
     4729.250400       0.625200
     4729.474100       0.623700
     4729.697800       0.622200
     4729.921500       0.620800
     4730.145200       0.619600
     4730.369000       0.618700
     4730.592700       0.618200
     4730.816500       0.617900
     4731.040400       0.617800
     4731.264200       0.618000
     4731.488100       0.618200
     4731.711900       0.618600
     4731.935800       0.618900
     4732.159800       0.619300
     4732.383700       0.619500
     4732.607700       0.619700
     4732.831700       0.619700
     4733.055700       0.619500
     4733.279700       0.619300
     4733.503700       0.619000
     4733.727800       0.618800
     4733.951900       0.618600
     4734.176000       0.618600
     4734.400200       0.618700
     4734.624300       0.619100
     4734.848500       0.619800
     4735.072700       0.620800
     4735.296900       0.622000
     4735.521100       0.623400
     4735.745400       0.624900
     4735.969700       0.626300
     4736.194000       0.627700
     4736.418300       0.628800
     4736.642700       0.629700
     4736.867000       0.630200
     4737.091400       0.630300
     4737.315800       0.629800
     4737.540300       0.628900
     4737.764700       0.627700
     4737.989200       0.626100
     4738.213700       0.624400
     4738.438200       0.622500
     4738.662700       0.620700
     4738.887300       0.618900
     4739.111900       0.617300
     4739.336500       0.615900
     4739.561100       0.614800
     4739.785800       0.614000
     4740.010400       0.613500
     4740.235100       0.613100
     4740.459800       0.612800
     4740.684600       0.612600
     4740.909300       0.612300
     4741.134100       0.612000
     4741.358900       0.611600
     4741.583700       0.611100
     4741.808500       0.610300
     4742.033400       0.609300
     4742.258300       0.608300
     4742.483200       0.607100
     4742.708100       0.606000
     4742.933000       0.604800
     4743.158000       0.603800
     4743.383000       0.602900
     4743.608000       0.602200
     4743.833000       0.601800
     4744.058100       0.601600
     4744.283100       0.601700
     4744.508200       0.601900
     4744.733300       0.602200
     4744.958500       0.602500
     4745.183600       0.602600
     4745.408800       0.602600
     4745.634000       0.602400
     4745.859200       0.601800
     4746.084500       0.600700
     4746.309700       0.599300
     4746.535000       0.597400
     4746.760300       0.595200
     4746.985700       0.592900
     4747.211000       0.590500
     4747.436400       0.588000
     4747.661800       0.585800
     4747.887200       0.583700
     4748.112600       0.582000
     4748.338100       0.580700
     4748.563600       0.580000
     4748.789100       0.579700
     4749.014600       0.579700
     4749.240100       0.580100
     4749.465700       0.580600
     4749.691300       0.581300
     4749.916900       0.582000
     4750.142500       0.582600
     4750.368200       0.583100
     4750.593800       0.583300
     4750.819500       0.583200
     4751.045200       0.582900
     4751.271000       0.582400
     4751.496700       0.581700
     4751.722500       0.580900
     4751.948300       0.580000
     4752.174100       0.579100
     4752.400000       0.578300
     4752.625800       0.577600
     4752.851700       0.577100
     4753.077600       0.576700
     4753.303500       0.576500
     4753.529500       0.576500
     4753.755500       0.576400
     4753.981500       0.576400
     4754.207500       0.576300
     4754.433500       0.576200
     4754.659600       0.575900
     4754.885600       0.575400
     4755.111700       0.574600
     4755.337900       0.573500
     4755.564000       0.572200
     4755.790200       0.570700
     4756.016400       0.569100
     4756.242600       0.567300
     4756.468800       0.565500
     4756.695000       0.563700
     4756.921300       0.561900
     4757.147600       0.560200
     4757.373900       0.558700
     4757.600300       0.557400
     4757.826600       0.556200
     4758.053000       0.555200
     4758.279400       0.554400
     4758.505800       0.553600
     4758.732300       0.552900
     4758.958700       0.552300
     4759.185200       0.551800
     4759.411700       0.551200
     4759.638300       0.550700
     4759.864800       0.550100
     4760.091400       0.549600
     4760.318000       0.549000
     4760.544600       0.548400
     4760.771200       0.547800
     4760.997900       0.547200
     4761.224600       0.546700
     4761.451300       0.546200
     4761.678000       0.545700
     4761.904800       0.545300
     4762.131500       0.545000
     4762.358300       0.544600
     4762.585100       0.544400
     4762.812000       0.544100
     4763.038800       0.543800
     4763.265700       0.543500
     4763.492600       0.543200
     4763.719500       0.542900
     4763.946500       0.542500
     4764.173400       0.542000
     4764.400400       0.541500
     4764.627400       0.540800
     4764.854400       0.540100
     4765.081500       0.539300
     4765.308600       0.538500
     4765.535600       0.537600
     4765.762800       0.536600
     4765.989900       0.535500
     4766.217100       0.534300
     4766.444200       0.533100
     4766.671400       0.531900
     4766.898700       0.530500
     4767.125900       0.529200
     4767.353200       0.527900
     4767.580500       0.526600
     4767.807800       0.525400
     4768.035100       0.524300
     4768.262400       0.523300
     4768.489800       0.522400
     4768.717200       0.521800
     4768.944600       0.521300
     4769.172100       0.521000
     4769.399500       0.520800
     4769.627000       0.520600
     4769.854500       0.520500
     4770.082000       0.520500
     4770.309600       0.520300
     4770.537200       0.520100
     4770.764800       0.519700
     4770.992400       0.519200
     4771.220000       0.518400
     4771.447700       0.517500
     4771.675300       0.516500
     4771.903000       0.515300
     4772.130800       0.514100
     4772.358500       0.512800
     4772.586300       0.511500
     4772.814100       0.510200
     4773.041900       0.509000
     4773.269700       0.507900
     4773.497500       0.506900
     4773.725400       0.506000
     4773.953300       0.505100
     4774.181200       0.504200
     4774.409200       0.503300
     4774.637100       0.502300
     4774.865100       0.501200
     4775.093100       0.499900
     4775.321100       0.498500
     4775.549200       0.496800
     4775.777300       0.494800
     4776.005300       0.492600
     4776.233500       0.490300
     4776.461600       0.487900
     4776.689800       0.485600
     4776.917900       0.483300
     4777.146100       0.481300
     4777.374400       0.479400
     4777.602600       0.477900
     4777.830900       0.476900
     4778.059200       0.476200
     4778.287500       0.476000
     4778.515800       0.476000
     4778.744100       0.476300
     4778.972500       0.476700
     4779.200900       0.477100
     4779.429300       0.477500
     4779.657800       0.477700
     4779.886200       0.477600
     4780.114700       0.477200
     4780.343200       0.476500
     4780.571800       0.475300
     4780.800300       0.473900
     4781.028900       0.472300
     4781.257500       0.470600
     4781.486100       0.468800
     4781.714700       0.467000
     4781.943400       0.465400
     4782.172100       0.464000
     4782.400800       0.462800
     4782.629500       0.461900
     4782.858200       0.461300
     4783.087000       0.460900
     4783.315800       0.460600
     4783.544600       0.460400
     4783.773400       0.460100
     4784.002300       0.459700
     4784.231200       0.459100
     4784.460100       0.458200
     4784.689000       0.457000
     4784.917900       0.455500
     4785.146900       0.453500
     4785.375900       0.451400
     4785.604900       0.449000
     4785.833900       0.446600
     4786.063000       0.444100
     4786.292100       0.441700
     4786.521200       0.439400
     4786.750300       0.437400
     4786.979400       0.435600
     4787.208600       0.434200
     4787.437800       0.433100
     4787.667000       0.432200
     4787.896200       0.431600
     4788.125400       0.431100
     4788.354700       0.430600
     4788.584000       0.430200
     4788.813300       0.429800
     4789.042700       0.429300
     4789.272000       0.428600
     4789.501400       0.427800
     4789.730800       0.426800
     4789.960200       0.425700
     4790.189700       0.424600
     4790.419200       0.423400
     4790.648700       0.422200
     4790.878200       0.421100
     4791.107700       0.420200
     4791.337300       0.419300
     4791.566800       0.418700
     4791.796400       0.418400
     4792.026100       0.418200
     4792.255700       0.418100
     4792.485400       0.418100
     4792.715100       0.418000
     4792.944800       0.417900
     4793.174500       0.417500
     4793.404300       0.416900
     4793.634100       0.416000
     4793.863900       0.414800
     4794.093700       0.413100
     4794.323500       0.411000
     4794.553400       0.408600
     4794.783300       0.406000
     4795.013200       0.403300
     4795.243100       0.400600
     4795.473100       0.397900
     4795.703100       0.395300
     4795.933000       0.392900
     4796.163100       0.390700
     4796.393100       0.389000
     4796.623200       0.387500
     4796.853300       0.386300
     4797.083400       0.385300
     4797.313500       0.384500
     4797.543700       0.383800
     4797.773800       0.383300
     4798.004000       0.382700
     4798.234200       0.382200
     4798.464500       0.381600
     4798.694800       0.381000
     4798.925000       0.380200
     4799.155300       0.379400
     4799.385700       0.378500
     4799.616000       0.377600
     4799.846400       0.376700
     4800.076800       0.375700
     4800.307200       0.374700
     4800.537700       0.373700
     4800.768100       0.372700
     4800.998600       0.371800
     4801.229100       0.370800
     4801.459600       0.369900
     4801.690200       0.368900
     4801.920800       0.367900
     4802.151400       0.367000
     4802.382000       0.365900
     4802.612600       0.364900
     4802.843300       0.363800
     4803.074000       0.362600
     4803.304700       0.361400
     4803.535400       0.360100
     4803.766200       0.358700
     4803.996900       0.357400
     4804.227700       0.356000
     4804.458500       0.354700
     4804.689400       0.353400
     4804.920200       0.352100
     4805.151100       0.350800
     4805.382000       0.349700
     4805.613000       0.348600
     4805.843900       0.347600
     4806.074900       0.346700
     4806.305900       0.345800
     4806.536900       0.344800
     4806.767900       0.343900
     4806.999000       0.342900
     4807.230100       0.341900
     4807.461200       0.340800
     4807.692300       0.339600
     4807.923500       0.338200
     4808.154600       0.336800
     4808.385800       0.335300
     4808.617000       0.333700
     4808.848300       0.332100
     4809.079500       0.330500
     4809.310800       0.328900
     4809.542100       0.327300
     4809.773500       0.325700
     4810.004800       0.324200
     4810.236200       0.322700
     4810.467600       0.321300
     4810.699000       0.320000
     4810.930400       0.318800
     4811.161900       0.317600
     4811.393400       0.316400
     4811.624900       0.315300
     4811.856400       0.314200
     4812.088000       0.313200
     4812.319500       0.312100
     4812.551100       0.311100
     4812.782800       0.310100
     4813.014400       0.309100
     4813.246100       0.308100
     4813.477700       0.307100
     4813.709400       0.306000
     4813.941200       0.305000
     4814.172900       0.303900
     4814.404700       0.302700
     4814.636500       0.301500
     4814.868300       0.300200
     4815.100200       0.298900
     4815.332000       0.297600
     4815.563900       0.296300
     4815.795800       0.295000
     4816.027700       0.293700
     4816.259700       0.292500
     4816.491700       0.291400
     4816.723700       0.290300
     4816.955700       0.289300
     4817.187700       0.288500
     4817.419800       0.287700
     4817.651900       0.287100
     4817.884000       0.286400
     4818.116100       0.285800
     4818.348300       0.285200
     4818.580400       0.284500
     4818.812600       0.283800
     4819.044900       0.283000
     4819.277100       0.282000
     4819.509400       0.281000
     4819.741700       0.279800
     4819.974000       0.278500
     4820.206300       0.277200
     4820.438700       0.275800
     4820.671000       0.274500
     4820.903400       0.273100
     4821.135900       0.271800
     4821.368300       0.270600
     4821.600800       0.269500
     4821.833300       0.268500
     4822.065800       0.267600
     4822.298300       0.266800
     4822.530900       0.266100
     4822.763400       0.265500
     4822.996000       0.264800
     4823.228700       0.264200
     4823.461300       0.263500
     4823.694000       0.262900
     4823.926700       0.262100
     4824.159400       0.261300
     4824.392100       0.260400
     4824.624900       0.259400
     4824.857700       0.258400
     4825.090500       0.257300
     4825.323300       0.256200
     4825.556100       0.255000
     4825.789000       0.253800
     4826.021900       0.252500
     4826.254800       0.251200
     4826.487800       0.249900
     4826.720700       0.248600
     4826.953700       0.247200
     4827.186700       0.245900
     4827.419700       0.244500
     4827.652800       0.243200
     4827.885900       0.241800
     4828.119000       0.240500
     4828.352100       0.239200
     4828.585200       0.237900
     4828.818400       0.236700
     4829.051600       0.235500
     4829.284800       0.234300
     4829.518000       0.233200
     4829.751300       0.232200
     4829.984500       0.231100
     4830.217800       0.230200
     4830.451200       0.229300
     4830.684500       0.228400
     4830.917900       0.227600
     4831.151300       0.226900
     4831.384700       0.226200
     4831.618100       0.225500
     4831.851600       0.224800
     4832.085000       0.224200
     4832.318500       0.223500
     4832.552100       0.222800
     4832.785600       0.222000
     4833.019200       0.221200
     4833.252800       0.220300
     4833.486400       0.219200
     4833.720000       0.218200
     4833.953700       0.217000
     4834.187400       0.215800
     4834.421100       0.214700
     4834.654800       0.213500
     4834.888600       0.212400
     4835.122300       0.211300
     4835.356100       0.210400
     4835.589900       0.209600
     4835.823800       0.208800
     4836.057600       0.208200
     4836.291500       0.207700
     4836.525400       0.207300
     4836.759400       0.206900
     4836.993300       0.206500
     4837.227300       0.206000
     4837.461300       0.205500
     4837.695300       0.205000
     4837.929400       0.204300
     4838.163400       0.203600
     4838.397500       0.202700
     4838.631600       0.201700
     4838.865800       0.200700
     4839.099900       0.199600
     4839.334100       0.198400
     4839.568300       0.197300
     4839.802500       0.196100
     4840.036800       0.194900
     4840.271100       0.193800
     4840.505300       0.192700
     4840.739700       0.191700
     4840.974000       0.190700
     4841.208400       0.189700
     4841.442700       0.188800
     4841.677200       0.187900
     4841.911600       0.187000
     4842.146000       0.186200
     4842.380500       0.185400
     4842.615000       0.184700
     4842.849500       0.183900
     4843.084100       0.183200
     4843.318600       0.182600
     4843.553200       0.181900
     4843.787800       0.181200
     4844.022500       0.180600
     4844.257100       0.179900
     4844.491800       0.179300
     4844.726500       0.178600
     4844.961200       0.177900
     4845.196000       0.177200
     4845.430800       0.176400
     4845.665600       0.175700
     4845.900400       0.174900
     4846.135200       0.174200
     4846.370100       0.173400
     4846.605000       0.172700
     4846.839900       0.171900
     4847.074800       0.171200
     4847.309700       0.170500
     4847.544700       0.169900
     4847.779700       0.169200
     4848.014700       0.168600
     4848.249800       0.167900
     4848.484800       0.167300
     4848.719900       0.166500
     4848.955100       0.165800
     4849.190200       0.164900
     4849.425300       0.164000
     4849.660500       0.163000
     4849.895700       0.161900
     4850.131000       0.160700
     4850.366200       0.159500
     4850.601500       0.158200
     4850.836800       0.157000
     4851.072100       0.155800
     4851.307400       0.154700
     4851.542800       0.153700
     4851.778200       0.152900
     4852.013600       0.152200
     4852.249000       0.151700
     4852.484500       0.151400
     4852.719900       0.151300
     4852.955400       0.151200
     4853.191000       0.151200
     4853.426500       0.151300
     4853.662100       0.151400
     4853.897700       0.151400
     4854.133300       0.151400
     4854.368900       0.151300
     4854.604600       0.151100
     4854.840300       0.150700
     4855.076000       0.150300
     4855.311700       0.149800
     4855.547500       0.149200
     4855.783200       0.148500
     4856.019000       0.147700
     4856.254900       0.146900
     4856.490700       0.146100
     4856.726600       0.145200
     4856.962500       0.144300
     4857.198400       0.143400
     4857.434300       0.142500
     4857.670300       0.141600
     4857.906200       0.140700
     4858.142200       0.139800
     4858.378300       0.138900
     4858.614300       0.138000
     4858.850400       0.137200
     4859.086500       0.136400
     4859.322600       0.135700
     4859.558800       0.135000
     4859.794900       0.134300
     4860.031100       0.133700
     4860.267300       0.133100
     4860.503500       0.132600
     4860.739800       0.132000
     4860.976100       0.131500
     4861.212400       0.131000
     4861.448700       0.130500
     4861.685100       0.130100
     4861.921400       0.129600
     4862.157800       0.129200
     4862.394200       0.128700
     4862.630700       0.128200
     4862.867100       0.127700
     4863.103600       0.127200
     4863.340100       0.126700
     4863.576700       0.126100
     4863.813200       0.125500
     4864.049800       0.124900
     4864.286400       0.124200
     4864.523000       0.123500
     4864.759700       0.122800
     4864.996400       0.122100
     4865.233000       0.121400
     4865.469800       0.120700
     4865.706500       0.120000
     4865.943300       0.119400
     4866.180000       0.118800
     4866.416900       0.118200
     4866.653700       0.117700
     4866.890500       0.117300
     4867.127400       0.116800
     4867.364300       0.116400
     4867.601200       0.115900
     4867.838200       0.115400
     4868.075200       0.114800
     4868.312200       0.114300
     4868.549200       0.113600
     4868.786200       0.112900
     4869.023300       0.112100
     4869.260400       0.111200
     4869.497500       0.110400
     4869.734600       0.109500
     4869.971800       0.108700
     4870.208900       0.107900
     4870.446100       0.107300
     4870.683400       0.106700
     4870.920600       0.106200
     4871.157900       0.105800
     4871.395200       0.105600
     4871.632500       0.105500
     4871.869800       0.105400
     4872.107200       0.105400
     4872.344600       0.105400
     4872.582000       0.105400
     4872.819400       0.105300
     4873.056900       0.105300
     4873.294300       0.105100
     4873.531800       0.104900
     4873.769400       0.104500
     4874.006900       0.104100
     4874.244500       0.103600
     4874.482100       0.103100
     4874.719700       0.102500
     4874.957300       0.101900
     4875.195000       0.101200
     4875.432700       0.100500
     4875.670400       0.099800
     4875.908100       0.099100
     4876.145900       0.098400
     4876.383700       0.097700
     4876.621500       0.097000
     4876.859300       0.096400
     4877.097200       0.095700
     4877.335000       0.095100
     4877.572900       0.094500
     4877.810800       0.093900
     4878.048800       0.093300
     4878.286700       0.092800
     4878.524700       0.092400
     4878.762700       0.091900
     4879.000800       0.091500
     4879.238800       0.091100
     4879.476900       0.090700
     4879.715000       0.090300
     4879.953200       0.090000
     4880.191300       0.089600
     4880.429500       0.089300
     4880.667700       0.089000
     4880.905900       0.088600
     4881.144100       0.088300
     4881.382400       0.087900
     4881.620700       0.087600
     4881.859000       0.087300
     4882.097300       0.087000
     4882.335700       0.086600
     4882.574100       0.086300
     4882.812500       0.086100
     4883.050900       0.085800
     4883.289400       0.085500
     4883.527900       0.085200
     4883.766400       0.085000
     4884.004900       0.084700
     4884.243400       0.084400
     4884.482000       0.084100
     4884.720600       0.083800
     4884.959200       0.083500
     4885.197900       0.083100
     4885.436500       0.082700
     4885.675200       0.082400
     4885.913900       0.082000
     4886.152600       0.081500
     4886.391400       0.081100
     4886.630200       0.080700
     4886.869000       0.080300
     4887.107800       0.079900
     4887.346700       0.079600
     4887.585500       0.079300
     4887.824400       0.079000
     4888.063300       0.078700
     4888.302300       0.078500
     4888.541300       0.078300
     4888.780200       0.078000
     4889.019300       0.077800
     4889.258300       0.077500
     4889.497400       0.077100
     4889.736400       0.076700
     4889.975600       0.076200
     4890.214700       0.075700
     4890.453800       0.075100
     4890.693000       0.074400
     4890.932200       0.073800
     4891.171400       0.073100
     4891.410700       0.072400
     4891.650000       0.071800
     4891.889200       0.071300
     4892.128600       0.070800
     4892.367900       0.070400
     4892.607300       0.070200
     4892.846700       0.070000
     4893.086100       0.069900
     4893.325500       0.069900
     4893.565000       0.069900
     4893.804400       0.069900
     4894.043900       0.069900
     4894.283500       0.069800
     4894.523000       0.069700
     4894.762600       0.069500
     4895.002200       0.069200
     4895.241800       0.068800
     4895.481500       0.068300
     4895.721100       0.067800
     4895.960800       0.067300
     4896.200500       0.066700
     4896.440300       0.066100
     4896.680100       0.065600
     4896.919800       0.065100
     4897.159600       0.064600
     4897.399500       0.064300
     4897.639300       0.064000
     4897.879200       0.063700
     4898.119100       0.063600
     4898.359000       0.063400
     4898.599000       0.063300
     4898.839000       0.063200
     4899.079000       0.063100
     4899.319000       0.062900
     4899.559000       0.062800
     4899.799100       0.062600
     4900.039200       0.062500
     4900.279300       0.062200
     4900.519500       0.062000
     4900.759600       0.061700
     4900.999800       0.061400
     4901.240000       0.061100
     4901.480200       0.060800
     4901.720500       0.060400
     4901.960800       0.060000
     4902.201100       0.059600
     4902.441400       0.059200
     4902.681800       0.058800
     4902.922100       0.058400
     4903.162500       0.057900
     4903.403000       0.057500
     4903.643400       0.057100
     4903.883900       0.056700
     4904.124400       0.056300
     4904.364900       0.056000
     4904.605400       0.055700
     4904.846000       0.055400
     4905.086600       0.055200
     4905.327200       0.055000
     4905.567800       0.054800
     4905.808500       0.054600
     4906.049200       0.054400
     4906.289900       0.054300
     4906.530600       0.054100
     4906.771300       0.054000
     4907.012100       0.053900
     4907.252900       0.053800
     4907.493700       0.053700
     4907.734600       0.053500
     4907.975500       0.053400
     4908.216400       0.053300
     4908.457300       0.053100
     4908.698200       0.052900
     4908.939200       0.052700
     4909.180200       0.052500
     4909.421200       0.052200
     4909.662200       0.051900
     4909.903300       0.051600
     4910.144400       0.051300
     4910.385500       0.051000
     4910.626600       0.050700
     4910.867800       0.050400
     4911.108900       0.050000
     4911.350100       0.049800
     4911.591400       0.049500
     4911.832600       0.049300
     4912.073900       0.049000
     4912.315200       0.048900
     4912.556500       0.048700
     4912.797800       0.048500
     4913.039200       0.048400
     4913.280600       0.048200
     4913.522000       0.048100
     4913.763500       0.047900
     4914.004900       0.047700
     4914.246400       0.047600
     4914.487900       0.047400
     4914.729400       0.047200
     4914.971000       0.047000
     4915.212600       0.046700
     4915.454200       0.046500
     4915.695800       0.046300
     4915.937500       0.046100
     4916.179100       0.045900
     4916.420800       0.045600
     4916.662600       0.045400
     4916.904300       0.045200
     4917.146100       0.045100
     4917.387900       0.044900
     4917.629700       0.044700
     4917.871500       0.044500
     4918.113400       0.044400
     4918.355300       0.044200
     4918.597200       0.044100
     4918.839200       0.043900
     4919.081100       0.043800
     4919.323100       0.043600
     4919.565100       0.043500
     4919.807100       0.043400
     4920.049200       0.043200
     4920.291300       0.043100
     4920.533400       0.042900
     4920.775500       0.042700
     4921.017700       0.042400
     4921.259800       0.042100
     4921.502000       0.041800
     4921.744300       0.041500
     4921.986500       0.041100
     4922.228800       0.040800
     4922.471100       0.040400
     4922.713400       0.040100
     4922.955700       0.039800
     4923.198100       0.039500
     4923.440500       0.039200
     4923.682900       0.039000
     4923.925400       0.038900
     4924.167800       0.038800
     4924.410300       0.038800
     4924.652800       0.038800
     4924.895300       0.038700
     4925.137900       0.038700
     4925.380500       0.038700
     4925.623100       0.038600
     4925.865700       0.038500
     4926.108400       0.038400
     4926.351100       0.038100
     4926.593800       0.037900
     4926.836500       0.037500
     4927.079200       0.037200
     4927.322000       0.036800
     4927.564800       0.036400
     4927.807600       0.036000
     4928.050500       0.035700
     4928.293300       0.035300
     4928.536200       0.035100
     4928.779100       0.034800
     4929.022100       0.034700
     4929.265000       0.034500
     4929.508000       0.034400
     4929.751000       0.034400
     4929.994100       0.034300
     4930.237100       0.034300
     4930.480200       0.034200
     4930.723300       0.034200
     4930.966500       0.034100
     4931.209600       0.034000
     4931.452800       0.033900
     4931.696000       0.033800
     4931.939200       0.033700
     4932.182500       0.033500
     4932.425800       0.033400
     4932.669100       0.033200
     4932.912400       0.033100
     4933.155700       0.032900
     4933.399100       0.032800
     4933.642500       0.032700
     4933.885900       0.032600
     4934.129400       0.032400
     4934.372800       0.032300
     4934.616300       0.032200
     4934.859800       0.032100
     4935.103400       0.032100
     4935.347000       0.032000
     4935.590500       0.031900
     4935.834200       0.031800
     4936.077800       0.031600
     4936.321500       0.031500
     4936.565100       0.031400
     4936.808800       0.031300
     4937.052600       0.031100
     4937.296300       0.031000
     4937.540100       0.030800
     4937.783900       0.030700
     4938.027800       0.030500
     4938.271600       0.030300
     4938.515500       0.030100
     4938.759400       0.029900
     4939.003300       0.029800
     4939.247300       0.029600
     4939.491200       0.029400
     4939.735200       0.029200
     4939.979300       0.029000
     4940.223300       0.028800
     4940.467400       0.028700
     4940.711500       0.028500
     4940.955600       0.028400
     4941.199700       0.028300
     4941.443900       0.028200
     4941.688100       0.028100
     4941.932300       0.028000
     4942.176500       0.027900
     4942.420800       0.027800
     4942.665100       0.027700
     4942.909400       0.027600
     4943.153700       0.027500
     4943.398100       0.027400
     4943.642500       0.027300
     4943.886900       0.027200
     4944.131300       0.027100
     4944.375800       0.027000
     4944.620300       0.026800
     4944.864800       0.026700
     4945.109300       0.026600
     4945.353800       0.026400
     4945.598400       0.026300
     4945.843000       0.026100
     4946.087600       0.026000
     4946.332300       0.025800
     4946.577000       0.025700
     4946.821700       0.025500
     4947.066400       0.025300
     4947.311100       0.025200
     4947.555900       0.025000
     4947.800700       0.024900
     4948.045500       0.024700
     4948.290400       0.024600
     4948.535200       0.024500
     4948.780100       0.024300
     4949.025000       0.024200
     4949.270000       0.024100
     4949.514900       0.024000
     4949.759900       0.023900
     4950.005000       0.023800
     4950.250000       0.023600
     4950.495000       0.023500
     4950.740100       0.023400
     4950.985200       0.023300
     4951.230400       0.023200
     4951.475500       0.023100
     4951.720700       0.023000
     4951.965900       0.022900
     4952.211200       0.022800
     4952.456400       0.022700
     4952.701700       0.022600
     4952.947000       0.022500
     4953.192300       0.022500
     4953.437700       0.022400
     4953.683100       0.022300
     4953.928500       0.022300
     4954.173900       0.022200
     4954.419300       0.022200
     4954.664800       0.022100
     4954.910300       0.022000
     4955.155800       0.021900
     4955.401400       0.021800
     4955.647000       0.021700
     4955.892600       0.021600
     4956.138200       0.021500
     4956.383800       0.021300
     4956.629500       0.021200
     4956.875200       0.021100
     4957.120900       0.020900
     4957.366600       0.020800
     4957.612400       0.020700
     4957.858200       0.020600
     4958.104000       0.020500
     4958.349900       0.020400
     4958.595700       0.020300
     4958.841600       0.020300
     4959.087500       0.020200
     4959.333500       0.020100
     4959.579400       0.020100
     4959.825400       0.020000
     4960.071400       0.019900
     4960.317500       0.019800
     4960.563500       0.019700
     4960.809600       0.019600
     4961.055700       0.019500
     4961.301800       0.019400
     4961.548000       0.019300
     4961.794200       0.019100
     4962.040400       0.019000
     4962.286600       0.018800
     4962.532900       0.018700
     4962.779200       0.018500
     4963.025500       0.018400
     4963.271800       0.018200
     4963.518100       0.018100
     4963.764500       0.017900
     4964.010900       0.017800
     4964.257300       0.017700
     4964.503800       0.017500
     4964.750300       0.017400
     4964.996800       0.017400
     4965.243300       0.017300
     4965.489800       0.017300
     4965.736400       0.017200
     4965.983000       0.017200
     4966.229600       0.017200
     4966.476300       0.017200
     4966.723000       0.017200
     4966.969700       0.017200
     4967.216400       0.017200
     4967.463100       0.017200
     4967.709900       0.017100
     4967.956700       0.017100
     4968.203500       0.017000
     4968.450300       0.016900
     4968.697200       0.016800
     4968.944100       0.016700
     4969.191000       0.016600
     4969.438000       0.016400
     4969.684900       0.016300
     4969.931900       0.016200
     4970.178900       0.016100
     4970.426000       0.016000
     4970.673000       0.016000
     4970.920100       0.015900
     4971.167200       0.015800
     4971.414400       0.015800
     4971.661500       0.015700
     4971.908700       0.015700
     4972.155900       0.015600
     4972.403200       0.015600
     4972.650400       0.015500
     4972.897700       0.015500
     4973.145000       0.015400
     4973.392400       0.015400
     4973.639700       0.015300
     4973.887100       0.015200
     4974.134500       0.015200
     4974.381900       0.015100
     4974.629400       0.015000
     4974.876900       0.014900
     4975.124400       0.014800
     4975.371900       0.014700
     4975.619500       0.014600
     4975.867000       0.014500
     4976.114600       0.014400
     4976.362300       0.014300
     4976.609900       0.014200
     4976.857600       0.014100
     4977.105300       0.014000
     4977.353000       0.013800
     4977.600800       0.013800
     4977.848600       0.013700
     4978.096400       0.013600
     4978.344200       0.013500
     4978.592100       0.013400
     4978.839900       0.013300
     4979.087800       0.013300
     4979.335800       0.013200
     4979.583700       0.013200
     4979.831700       0.013100
     4980.079700       0.013000
     4980.327700       0.013000
     4980.575800       0.012900
     4980.823800       0.012900
     4981.071900       0.012800
     4981.320000       0.012800
     4981.568200       0.012700
     4981.816400       0.012700
     4982.064600       0.012700
     4982.312800       0.012600
     4982.561000       0.012600
     4982.809300       0.012600
     4983.057600       0.012600
     4983.305900       0.012600
     4983.554300       0.012600
     4983.802600       0.012600
     4984.051000       0.012600
     4984.299500       0.012600
     4984.547900       0.012500
     4984.796400       0.012500
     4985.044900       0.012400
     4985.293400       0.012400
     4985.541900       0.012300
     4985.790500       0.012200
     4986.039100       0.012100
     4986.287700       0.012000
     4986.536400       0.011900
     4986.785000       0.011800
     4987.033700       0.011700
     4987.282400       0.011600
     4987.531200       0.011500
     4987.779900       0.011500
     4988.028700       0.011400
     4988.277500       0.011400
     4988.526400       0.011300
     4988.775300       0.011300
     4989.024100       0.011200
     4989.273100       0.011200
     4989.522000       0.011200
     4989.771000       0.011100
     4990.020000       0.011100
     4990.269000       0.011000
     4990.518000       0.011000
     4990.767100       0.010900
     4991.016200       0.010900
     4991.265300       0.010800
     4991.514400       0.010800
     4991.763600       0.010700
     4992.012800       0.010700
     4992.262000       0.010600
     4992.511200       0.010600
     4992.760500       0.010600
     4993.009800       0.010500
     4993.259100       0.010500
     4993.508400       0.010500
     4993.757800       0.010400
     4994.007200       0.010400
     4994.256600       0.010400
     4994.506000       0.010400
     4994.755500       0.010300
     4995.005000       0.010300
     4995.254500       0.010300
     4995.504000       0.010200
     4995.753600       0.010200
     4996.003200       0.010100
     4996.252800       0.010100
     4996.502400       0.010000
     4996.752100       0.009900
     4997.001800       0.009800
     4997.251500       0.009800
     4997.501200       0.009700
     4997.751000       0.009600
     4998.000800       0.009500
     4998.250600       0.009400
     4998.500400       0.009200
     4998.750300       0.009100
     4999.000200       0.009000
     4999.250100       0.008900
     4999.500000       0.008900
     4999.750000       0.008800
     5000.000000       0.008700
     5000.250000       0.008700
     5000.500100       0.008600
     5000.750100       0.008600
     5001.000200       0.008600
     5001.250300       0.008600
     5001.500500       0.008600
     5001.750600       0.008600
     5002.000800       0.008600
     5002.251000       0.008600
     5002.501300       0.008600
     5002.751500       0.008600
     5003.001800       0.008600
     5003.252100       0.008600
     5003.502500       0.008500
     5003.752800       0.008500
     5004.003200       0.008500
     5004.253600       0.008500
     5004.504100       0.008500
     5004.754500       0.008500
     5005.005000       0.008400
     5005.255500       0.008400
     5005.506100       0.008400
     5005.756600       0.008300
     5006.007200       0.008300
     5006.257800       0.008300
     5006.508500       0.008200
     5006.759100       0.008200
     5007.009800       0.008200
     5007.260500       0.008100
     5007.511300       0.008100
     5007.762000       0.008000
     5008.012800       0.008000
     5008.263600       0.007900
     5008.514500       0.007900
     5008.765300       0.007800
     5009.016200       0.007800
     5009.267100       0.007700
     5009.518100       0.007700
     5009.769000       0.007600
     5010.020000       0.007600
     5010.271100       0.007500
     5010.522100       0.007500
     5010.773200       0.007400
     5011.024300       0.007400
     5011.275400       0.007300
     5011.526500       0.007300
     5011.777700       0.007300
     5012.028900       0.007200
     5012.280100       0.007200
     5012.531300       0.007200
     5012.782600       0.007300
     5013.033900       0.007300
     5013.285200       0.007300
     5013.536500       0.007400
     5013.787900       0.007400
     5014.039300       0.007400
     5014.290700       0.007400
     5014.542200       0.007400
     5014.793600       0.007400
     5015.045100       0.007400
     5015.296700       0.007300
     5015.548200       0.007300
     5015.799800       0.007200
     5016.051400       0.007100
     5016.303000       0.007000
     5016.554600       0.006900
     5016.806300       0.006800
     5017.058000       0.006700
     5017.309700       0.006600
     5017.561500       0.006500
     5017.813200       0.006500
     5018.065000       0.006500
     5018.316900       0.006500
     5018.568700       0.006500
     5018.820600       0.006500
     5019.072500       0.006500
     5019.324400       0.006600
     5019.576300       0.006600
     5019.828300       0.006600
     5020.080300       0.006600
     5020.332300       0.006500
     5020.584400       0.006500
     5020.836500       0.006400
     5021.088600       0.006400
     5021.340700       0.006300
     5021.592800       0.006200
     5021.845000       0.006100
     5022.097200       0.006000
     5022.349500       0.005900
     5022.601700       0.005800
     5022.854000       0.005800
     5023.106300       0.005700
     5023.358600       0.005600
     5023.611000       0.005500
     5023.863400       0.005500
     5024.115800       0.005400
     5024.368200       0.005300
     5024.620600       0.005300
     5024.873100       0.005200
     5025.125600       0.005100
     5025.378200       0.005100
     5025.630700       0.005000
     5025.883300       0.005000
     5026.135900       0.004900
     5026.388500       0.004900
     5026.641200       0.004900
     5026.893900       0.004800
     5027.146600       0.004800
     5027.399300       0.004800
     5027.652100       0.004800
     5027.904900       0.004900
     5028.157700       0.004900
     5028.410500       0.004900
     5028.663400       0.005000
     5028.916300       0.005000
     5029.169200       0.005000
     5029.422100       0.005000
     5029.675100       0.005000
     5029.928100       0.005000
     5030.181100       0.005000
     5030.434100       0.004900
     5030.687200       0.004800
     5030.940300       0.004700
     5031.193400       0.004600
     5031.446500       0.004400
     5031.699700       0.004300
     5031.952900       0.004200
     5032.206100       0.004100
     5032.459400       0.004000
     5032.712600       0.003900
     5032.965900       0.003800
     5033.219200       0.003800
     5033.472600       0.003800
     5033.726000       0.003800
     5033.979400       0.003800
     5034.232800       0.003800
     5034.486200       0.003800
     5034.739700       0.003900
     5034.993200       0.003900
     5035.246700       0.003900
     5035.500300       0.003900
     5035.753900       0.003900
     5036.007500       0.003900
     5036.261100       0.003800
     5036.514700       0.003800
     5036.768400       0.003800
     5037.022100       0.003700
     5037.275800       0.003700
     5037.529600       0.003700
     5037.783400       0.003700
     5038.037200       0.003700
     5038.291000       0.003700
     5038.544900       0.003700
     5038.798800       0.003700
     5039.052700       0.003700
     5039.306600       0.003700
     5039.560600       0.003700
     5039.814500       0.003700
     5040.068500       0.003700
     5040.322600       0.003700
     5040.576600       0.003700
     5040.830700       0.003600
     5041.084800       0.003600
     5041.339000       0.003500
     5041.593100       0.003400
     5041.847300       0.003300
     5042.101500       0.003300
     5042.355800       0.003200
     5042.610100       0.003100
     5042.864300       0.003100
     5043.118700       0.003000
     5043.373000       0.003000
     5043.627400       0.003000
     5043.881800       0.003000
     5044.136200       0.002900
     5044.390600       0.003000
     5044.645100       0.003000
     5044.899600       0.003000
     5045.154100       0.003000
     5045.408700       0.003000
     5045.663300       0.003000
     5045.917900       0.003100
     5046.172500       0.003100
     5046.427100       0.003100
     5046.681800       0.003100
     5046.936500       0.003100
     5047.191200       0.003100
     5047.446000       0.003100
     5047.700800       0.003100
     5047.955600       0.003100
     5048.210400       0.003100
     5048.465300       0.003000
     5048.720100       0.002900
     5048.975100       0.002900
     5049.230000       0.002800
     5049.485000       0.002700
     5049.739900       0.002600
     5049.995000       0.002600
     5050.250000       0.002500
     5050.505100       0.002400
     5050.760100       0.002400
     5051.015300       0.002400
     5051.270400       0.002300
     5051.525600       0.002300
     5051.780800       0.002300
     5052.036000       0.002200
     5052.291200       0.002200
     5052.546500       0.002200
     5052.801800       0.002200
     5053.057100       0.002100
     5053.312400       0.002100
     5053.567800       0.002000
     5053.823200       0.001900
     5054.078600       0.001900
     5054.334100       0.001800
     5054.589600       0.001700
     5054.845100       0.001600
     5055.100600       0.001500
     5055.356100       0.001400
     5055.611700       0.001300
     5055.867300       0.001300
     5056.123000       0.001200
     5056.378600       0.001100
     5056.634300       0.001100
     5056.890000       0.001000
     5057.145700       0.001000
     5057.401500       0.001000
     5057.657300       0.001000
     5057.913100       0.001000
     5058.168900       0.001000
     5058.424800       0.001000
     5058.680700       0.001100
     5058.936600       0.001100
     5059.192600       0.001200
     5059.448500       0.001300
     5059.704500       0.001300
     5059.960500       0.001400
     5060.216600       0.001400
     5060.472600       0.001500
     5060.728700       0.001500
     5060.984900       0.001500
     5061.241000       0.001400
     5061.497200       0.001400
     5061.753400       0.001300
     5062.009600       0.001200
     5062.265900       0.001100
     5062.522100       0.001000
     5062.778500       0.000900
     5063.034800       0.000800
     5063.291100       0.000800
     5063.547500       0.000700
     5063.803900       0.000700
     5064.060400       0.000600
     5064.316800       0.000600
     5064.573300       0.000600
     5064.829800       0.000500
     5065.086400       0.000500
     5065.342900       0.000500
     5065.599500       0.000500
     5065.856100       0.000600
     5066.112800       0.000600
     5066.369400       0.000600
     5066.626100       0.000600
     5066.882900       0.000700
     5067.139600       0.000700
     5067.396400       0.000700
     5067.653200       0.000700
     5067.910000       0.000700
     5068.166800       0.000700
     5068.423700       0.000700
     5068.680600       0.000700
     5068.937600       0.000700
     5069.194500       0.000600
     5069.451500       0.000600
     5069.708500       0.000500
     5069.965500       0.000400
     5070.222600       0.000400
     5070.479700       0.000300
     5070.736800       0.000300
     5070.993900       0.000300
     5071.251100       0.000300
     5071.508300       0.000300
     5071.765500       0.000300
     5072.022700       0.000300
     5072.280000       0.000400
     5072.537300       0.000400
     5072.794600       0.000400
     5073.051900       0.000500
     5073.309300       0.000500
     5073.566700       0.000500
     5073.824100       0.000500
     5074.081600       0.000500
     5074.339100       0.000500
     5074.596600       0.000500
     5074.854100       0.000500
     5075.111700       0.000500
     5075.369200       0.000400
     5075.626800       0.000400
     5075.884500       0.000400
     5076.142100       0.000400
     5076.399800       0.000400
     5076.657500       0.000400
     5076.915300       0.000400
     5077.173000       0.000400
     5077.430800       0.000500
     5077.688600       0.000500
     5077.946500       0.000500
     5078.204300       0.000500
     5078.462200       0.000500
     5078.720200       0.000500
     5078.978100       0.000500
     5079.236100       0.000500
     5079.494100       0.000400
     5079.752100       0.000400
     5080.010200       0.000400
     5080.268200       0.000400
     5080.526300       0.000300
     5080.784500       0.000300
     5081.042600       0.000300
     5081.300800       0.000300
     5081.559000       0.000300
     5081.817300       0.000300
     5082.075500       0.000400
     5082.333800       0.000400
     5082.592100       0.000400
     5082.850500       0.000400
     5083.108800       0.000400
     5083.367200       0.000400
     5083.625600       0.000400
     5083.884100       0.000400
     5084.142600       0.000400
     5084.401100       0.000400
     5084.659600       0.000300
     5084.918100       0.000300
     5085.176700       0.000300
     5085.435300       0.000200
     5085.693900       0.000200
     5085.952600       0.000200
     5086.211300       0.000100
     5086.470000       0.000100
     5086.728700       0.000100
     5086.987500       0.000100
     5087.246300       0.000100
     5087.505100       0.000200
     5087.763900       0.000200
     5088.022800       0.000200
     5088.281700       0.000200
     5088.540600       0.000200
     5088.799600       0.000200
     5089.058500       0.000300
     5089.317500       0.000300
     5089.576500       0.000300
     5089.835600       0.000300
     5090.094700       0.000300
     5090.353800       0.000300
     5090.612900       0.000300
     5090.872100       0.000300
     5091.131200       0.000200
     5091.390500       0.000200
     5091.649700       0.000200
     5091.909000       0.000200
     5092.168200       0.000200
     5092.427600       0.000200
     5092.686900       0.000200
     5092.946300       0.000200
     5093.205700       0.000200
     5093.465100       0.000100
     5093.724500       0.000100
     5093.984000       0.000100
     5094.243500       0.000100
     5094.503000       0.000100
     5094.762600       0.000100
     5095.022200       0.000100
     5095.281800       0.000100
     5095.541400       0.000100
     5095.801100       0.000100
     5096.060700       0.000100
     5096.320500       0.000100
     5096.580200       0.000100
     5096.840000       0.000100
     5097.099800       0.000100
     5097.359600       0.000100
     5097.619400       0.000100
     5097.879300       0.000100
     5098.139200       0.000100
     5098.399100       0.000100
     5098.659100       0.000100
     5098.919000       0.000100
     5099.179000       0.000100
     5099.439100       0.000100
     5099.699100       0.000100
     5099.959200       0.000100
     5100.219300       0.000100
     5100.479400       0.000100
     5100.739600       0.000200
     5100.999800       0.000200
     5101.260000       0.000200
     5101.520300       0.000200
     5101.780500       0.000200
     5102.040800       0.000200
     5102.301100       0.000200
     5102.561500       0.000200
     5102.821900       0.000200
     5103.082300       0.000200
     5103.342700       0.000200
     5103.603100       0.000200
     5103.863600       0.000200
     5104.124100       0.000200
     5104.384700       0.000200
     5104.645200       0.000200
     5104.905800       0.000200
     5105.166400       0.000300
     5105.427100       0.000300
     5105.687700       0.000300
     5105.948400       0.000300
     5106.209200       0.000300
     5106.469900       0.000300
     5106.730700       0.000400
     5106.991500       0.000400
     5107.252300       0.000300
     5107.513200       0.000300
     5107.774000       0.000300
     5108.034900       0.000300
     5108.295900       0.000300
     5108.556800       0.000300
     5108.817800       0.000200
     5109.078800       0.000200
     5109.339900       0.000200
     5109.600900       0.000200
     5109.862000       0.000100
     5110.123200       0.000100
     5110.384300       0.000100
     5110.645500       0.000100
     5110.906700       0.000100
     5111.167900       0.000100
     5111.429200       0.000100
     5111.690400       0.000100
     5111.951700       0.000100
     5112.213100       0.000100
     5112.474400       0.000100
     5112.735800       0.000100
     5112.997200       0.000100
     5113.258700       0.000100
     5113.520100       0.000100
     5113.781600       0.000100
     5114.043200       0.000200
     5114.304700       0.000200
     5114.566300       0.000200
     5114.827900       0.000200
     5115.089500       0.000200
     5115.351200       0.000200
     5115.612900       0.000200
     5115.874600       0.000200
     5116.136300       0.000100
     5116.398100       0.000100
     5116.659800       0.000100
     5116.921700       0.000100
     5117.183500       0.000100
     5117.445400       0.000100
     5117.707300       0.000100
     5117.969200       0.000100
     5118.231100       0.000100
     5118.493100       0.000100
     5118.755100       0.000100
     5119.017100       0.000100
     5119.279200       0.000100
     5119.541300       0.000100
     5119.803400       0.000100
     5120.065500       0.000100
     5120.327700       0.000100
     5120.589900       0.000100
     5120.852100       0.000100
     5121.114400       0.000100
     5121.376600       0.000100
     5121.638900       0.000100
     5121.901200       0.000100
     5122.163600       0.000100
     5122.426000       0.000100
     5122.688400       0.000100
     5122.950800       0.000100
     5123.213300       0.000100
     5123.475800       0.000100
     5123.738300       0.000100
     5124.000800       0.000200
     5124.263400       0.000200
     5124.526000       0.000200
     5124.788600       0.000200
     5125.051300       0.000200
     5125.313900       0.000200
     5125.576600       0.000200
     5125.839400       0.000200
     5126.102100       0.000300
     5126.364900       0.000300
     5126.627700       0.000300
     5126.890500       0.000300
     5127.153400       0.000300
     5127.416300       0.000300
     5127.679200       0.000200
     5127.942200       0.000200
     5128.205100       0.000200
     5128.468100       0.000200
     5128.731200       0.000200
     5128.994200       0.000200
     5129.257300       0.000200
     5129.520400       0.000100
     5129.783500       0.000100
     5130.046700       0.000100
     5130.309900       0.000100
     5130.573100       0.000000
     5130.836300       0.000000
     5131.099600       0.000000
     5131.362900       0.000000
     5131.626200       0.000000
     5131.889600       0.000000
     5132.152900       0.000000
     5132.416300       0.000000
     5132.679800       0.000000
     5132.943200       0.000100
     5133.206700       0.000100
     5133.470200       0.000100
     5133.733800       0.000100
     5133.997300       0.000100
     5134.260900       0.000100
     5134.524500       0.000100
     5134.788200       0.000200
     5135.051900       0.000200
     5135.315600       0.000200
     5135.579300       0.000200
     5135.843000       0.000200
     5136.106800       0.000200
     5136.370600       0.000200
     5136.634500       0.000200
     5136.898300       0.000200
     5137.162200       0.000200
     5137.426100       0.000200
     5137.690100       0.000200
     5137.954100       0.000200
     5138.218100       0.000200
     5138.482100       0.000200
     5138.746100       0.000200
     5139.010200       0.000200
     5139.274300       0.000200
     5139.538500       0.000200
     5139.802600       0.000200
     5140.066800       0.000200
     5140.331000       0.000200
     5140.595300       0.000300
     5140.859600       0.000300
     5141.123800       0.000300
     5141.388200       0.000300
     5141.652500       0.000300
     5141.916900       0.000300
     5142.181300       0.000300
     5142.445700       0.000300
     5142.710200       0.000200
     5142.974700       0.000200
     5143.239200       0.000200
     5143.503800       0.000200
     5143.768300       0.000200
     5144.032900       0.000100
     5144.297500       0.000100
     5144.562200       0.000100
     5144.826900       0.000100
     5145.091600       0.000100
     5145.356300       0.000100
     5145.621100       0.000100
     5145.885900       0.000100
     5146.150700       0.000100
     5146.415500       0.000100
     5146.680400       0.000100
     5146.945300       0.000100
     5147.210200       0.000100
     5147.475200       0.000200
     5147.740100       0.000200
     5148.005100       0.000200
     5148.270200       0.000300
     5148.535200       0.000300
     5148.800300       0.000300
     5149.065400       0.000300
     5149.330600       0.000300
     5149.595800       0.000300
     5149.861000       0.000300
     5150.126200       0.000300
     5150.391400       0.000300
     5150.656700       0.000200
     5150.922000       0.000200
     5151.187300       0.000200
     5151.452700       0.000100
     5151.718100       0.000100
     5151.983500       0.000100
     5152.249000       0.000100
     5152.514400       0.000100
     5152.779900       0.000100
     5153.045400       0.000100
     5153.311000       0.000000
     5153.576600       0.000000
     5153.842200       0.000000
     5154.107800       0.000000
     5154.373500       0.000000
     5154.639200       0.000000
     5154.904900       0.000000
     5155.170600       0.000000
     5155.436400       0.000000
     5155.702200       0.000000
     5155.968000       0.000000
     5156.233900       0.000000
     5156.499800       0.000000
     5156.765700       0.000000
     5157.031600       0.000000
     5157.297600       0.000000
     5157.563600       0.000100
     5157.829600       0.000100
     5158.095600       0.000100
     5158.361700       0.000200
     5158.627800       0.000200
     5158.893900       0.000200
     5159.160100       0.000300
     5159.426300       0.000300
     5159.692500       0.000300
     5159.958700       0.000300
     5160.225000       0.000400
     5160.491300       0.000400
     5160.757600       0.000400
     5161.023900       0.000300
     5161.290300       0.000300
     5161.556700       0.000300
     5161.823200       0.000300
     5162.089600       0.000300
     5162.356100       0.000200
     5162.622600       0.000200
     5162.889200       0.000200
     5163.155700       0.000200
     5163.422300       0.000200
     5163.688900       0.000200
     5163.955600       0.000200
     5164.222300       0.000100
     5164.489000       0.000100
     5164.755700       0.000100
     5165.022500       0.000100
     5165.289300       0.000100
     5165.556100       0.000100
     5165.822900       0.000100
     5166.089800       0.000100
     5166.356700       0.000100
     5166.623600       0.000100
     5166.890600       0.000100
     5167.157500       0.000100
     5167.424600       0.000100
     5167.691600       0.000100
     5167.958700       0.000100
     5168.225700       0.000100
     5168.492900       0.000100
     5168.760000       0.000100
     5169.027200       0.000100
     5169.294400       0.000100
     5169.561600       0.000100
     5169.828900       0.000100
     5170.096200       0.000100
     5170.363500       0.000100
     5170.630800       0.000100
     5170.898200       0.000100
     5171.165600       0.000100
     5171.433000       0.000100
     5171.700500       0.000200
     5171.967900       0.000200
     5172.235400       0.000200
     5172.503000       0.000200
     5172.770500       0.000300
     5173.038100       0.000300
     5173.305700       0.000300
     5173.573400       0.000300
     5173.841100       0.000300
     5174.108800       0.000300
     5174.376500       0.000300
     5174.644200       0.000300
     5174.912000       0.000300
     5175.179800       0.000300
     5175.447700       0.000300
     5175.715500       0.000200
     5175.983400       0.000200
     5176.251400       0.000200
     5176.519300       0.000200
     5176.787300       0.000200
     5177.055300       0.000200
     5177.323300       0.000200
     5177.591400       0.000200
     5177.859500       0.000200
     5178.127600       0.000200
     5178.395700       0.000200
     5178.663900       0.000200
     5178.932100       0.000200
     5179.200300       0.000100
     5179.468600       0.000100
     5179.736900       0.000100
     5180.005200       0.000100
     5180.273500       0.000100
     5180.541900       0.000100
     5180.810300       0.000100
     5181.078700       0.000100
     5181.347200       0.000100
     5181.615600       0.000100
     5181.884100       0.000100
     5182.152700       0.000100
     5182.421200       0.000100
     5182.689800       0.000100
     5182.958400       0.000100
     5183.227100       0.000100
     5183.495700       0.000100
     5183.764400       0.000000
     5184.033200       0.000000
     5184.301900       0.000000
     5184.570700       0.000000
     5184.839500       0.000000
     5185.108400       0.000000
     5185.377200       0.000000
     5185.646100       0.000000
     5185.915100       0.000000
     5186.184000       0.000000
     5186.453000       0.000000
     5186.722000       0.000000
     5186.991000       0.000000
     5187.260100       0.000000
     5187.529200       0.000000
     5187.798300       0.000000
     5188.067400       0.000000
     5188.336600       0.000000
     5188.605800       0.000000
     5188.875100       0.000000
     5189.144300       0.000000
     5189.413600       0.000000
     5189.682900       0.000100
     5189.952300       0.000100
     5190.221600       0.000100
     5190.491000       0.000100
     5190.760400       0.000100
     5191.029900       0.000200
     5191.299400       0.000200
     5191.568900       0.000200
     5191.838400       0.000200
     5192.108000       0.000200
     5192.377600       0.000200
     5192.647200       0.000200
     5192.916900       0.000200
     5193.186500       0.000200
     5193.456200       0.000200
     5193.726000       0.000200
     5193.995700       0.000200
     5194.265500       0.000200
     5194.535300       0.000200
     5194.805200       0.000200
     5195.075100       0.000200
     5195.345000       0.000200
     5195.614900       0.000200
     5195.884900       0.000200
     5196.154800       0.000200
     5196.424900       0.000200
     5196.694900       0.000200
     5196.965000       0.000300
     5197.235100       0.000300
     5197.505200       0.000300
     5197.775400       0.000300
     5198.045500       0.000300
     5198.315700       0.000200
     5198.586000       0.000200
     5198.856300       0.000200
     5199.126500       0.000200
     5199.396900       0.000200
     5199.667200       0.000200
     5199.937600       0.000200
     5200.208000       0.000100
     5200.478400       0.000100
     5200.748900       0.000200
     5201.019400       0.000200
     5201.289900       0.000200
     5201.560500       0.000200
     5201.831000       0.000200
     5202.101600       0.000200
     5202.372300       0.000200
     5202.642900       0.000200
     5202.913600       0.000200
     5203.184300       0.000200
     5203.455100       0.000200
     5203.725900       0.000200
     5203.996700       0.000200
     5204.267500       0.000200
     5204.538400       0.000100
     5204.809200       0.000100
     5205.080200       0.000100
     5205.351100       0.000100
     5205.622100       0.000100
     5205.893100       0.000100
     5206.164100       0.000100
     5206.435200       0.000100
     5206.706200       0.000100
     5206.977300       0.000100
     5207.248500       0.000100
     5207.519700       0.000100
     5207.790900       0.000100
     5208.062100       0.000100
     5208.333300       0.000100
     5208.604600       0.000100
     5208.875900       0.000100
     5209.147300       0.000100
     5209.418600       0.000100
     5209.690000       0.000100
     5209.961400       0.000100
     5210.232900       0.000100
     5210.504400       0.000100
     5210.775900       0.000200
     5211.047400       0.000200
     5211.319000       0.000200
     5211.590600       0.000200
     5211.862200       0.000200
     5212.133800       0.000200
     5212.405500       0.000200
     5212.677200       0.000200
     5212.949000       0.000300
     5213.220700       0.000300
     5213.492500       0.000300
     5213.764300       0.000300
     5214.036200       0.000300
     5214.308100       0.000300
     5214.580000       0.000300
     5214.851900       0.000300
     5215.123900       0.000300
     5215.395800       0.000300
     5215.667900       0.000300
     5215.939900       0.000300
     5216.212000       0.000200
     5216.484100       0.000200
     5216.756200       0.000200
     5217.028400       0.000200
     5217.300600       0.000200
     5217.572800       0.000300
     5217.845000       0.000300
     5218.117300       0.000300
     5218.389600       0.000300
     5218.661900       0.000300
     5218.934300       0.000300
     5219.206700       0.000300
     5219.479100       0.000200
     5219.751500       0.000200
     5220.024000       0.000200
     5220.296500       0.000200
     5220.569000       0.000200
     5220.841600       0.000200
     5221.114200       0.000100
     5221.386800       0.000100
     5221.659400       0.000100
     5221.932100       0.000100
     5222.204800       0.000100
     5222.477500       0.000100
     5222.750300       0.000100
     5223.023100       0.000200
     5223.295900       0.000200
     5223.568700       0.000200
     5223.841600       0.000200
     5224.114500       0.000200
     5224.387400       0.000200
     5224.660400       0.000200
     5224.933400       0.000200
     5225.206400       0.000200
     5225.479400       0.000200
     5225.752500       0.000200
     5226.025600       0.000200
     5226.298700       0.000200
     5226.571900       0.000100
     5226.845100       0.000100
     5227.118300       0.000100
     5227.391500       0.000100
     5227.664800       0.000100
     5227.938100       0.000100
     5228.211400       0.000100
     5228.484800       0.000100
     5228.758200       0.000100
     5229.031600       0.000100
     5229.305000       0.000200
     5229.578500       0.000200
     5229.852000       0.000200
     5230.125500       0.000200
     5230.399100       0.000200
     5230.672700       0.000200
     5230.946300       0.000200
     5231.219900       0.000200
     5231.493600       0.000200
     5231.767300       0.000200
     5232.041000       0.000200
     5232.314800       0.000200
     5232.588600       0.000200
     5232.862400       0.000200
     5233.136200       0.000200
     5233.410100       0.000200
     5233.684000       0.000200
     5233.957900       0.000200
     5234.231900       0.000200
     5234.505900       0.000200
     5234.779900       0.000200
     5235.053900       0.000200
     5235.328000       0.000200
     5235.602100       0.000200
     5235.876200       0.000200
     5236.150400       0.000200
     5236.424600       0.000200
     5236.698800       0.000200
     5236.973000       0.000200
     5237.247300       0.000200
     5237.521600       0.000200
     5237.795900       0.000200
     5238.070300       0.000200
     5238.344700       0.000200
     5238.619100       0.000200
     5238.893500       0.000200
     5239.168000       0.000200
     5239.442500       0.000200
     5239.717100       0.000200
     5239.991600       0.000200
     5240.266200       0.000200
     5240.540800       0.000200
     5240.815500       0.000200
     5241.090100       0.000200
     5241.364900       0.000200
     5241.639600       0.000200
     5241.914300       0.000200
     5242.189100       0.000200
     5242.464000       0.000100
     5242.738800       0.000100
     5243.013700       0.000100
     5243.288600       0.000100
     5243.563500       0.000100
     5243.838500       0.000100
     5244.113500       0.000100
     5244.388500       0.000100
     5244.663600       0.000100
     5244.938600       0.000100
     5245.213700       0.000100
     5245.488900       0.000100
     5245.764000       0.000100
     5246.039200       0.000100
     5246.314500       0.000100
     5246.589700       0.000100
     5246.865000       0.000100
     5247.140300       0.000100
     5247.415600       0.000100
     5247.691000       0.000100
     5247.966400       0.000100
     5248.241800       0.000100
     5248.517300       0.000100
     5248.792800       0.000100
     5249.068300       0.000100
     5249.343800       0.000100
     5249.619400       0.000100
     5249.895000       0.000100
     5250.170600       0.000100
     5250.446300       0.000100
     5250.722000       0.000100
     5250.997700       0.000100
     5251.273400       0.000100
     5251.549200       0.000100
     5251.825000       0.000100
     5252.100800       0.000100
     5252.376700       0.000100
     5252.652600       0.000100
     5252.928500       0.000100
     5253.204500       0.000100
     5253.480400       0.000100
     5253.756400       0.000100
     5254.032500       0.000100
     5254.308500       0.000200
     5254.584600       0.000200
     5254.860700       0.000200
     5255.136900       0.000200
     5255.413100       0.000200
     5255.689300       0.000200
     5255.965500       0.000200
     5256.241800       0.000200
     5256.518100       0.000200
     5256.794400       0.000200
     5257.070800       0.000200
     5257.347100       0.000200
     5257.623600       0.000200
     5257.900000       0.000200
     5258.176500       0.000200
     5258.453000       0.000200
     5258.729500       0.000200
     5259.006000       0.000200
     5259.282600       0.000200
     5259.559200       0.000100
     5259.835900       0.000100
     5260.112600       0.000100
     5260.389300       0.000100
     5260.666000       0.000100
     5260.942800       0.000200
     5261.219600       0.000200
     5261.496400       0.000200
     5261.773200       0.000200
     5262.050100       0.000200
     5262.327000       0.000200
     5262.603900       0.000200
     5262.880900       0.000300
     5263.157900       0.000300
     5263.434900       0.000200
     5263.712000       0.000200
     5263.989100       0.000200
     5264.266200       0.000200
     5264.543300       0.000200
     5264.820500       0.000200
     5265.097700       0.000100
     5265.374900       0.000100
     5265.652200       0.000100
     5265.929400       0.000100
     5266.206800       0.000100
     5266.484100       0.000100
     5266.761500       0.000100
     5267.038900       0.000100
     5267.316300       0.000100
     5267.593800       0.000100
     5267.871300       0.000100
     5268.148800       0.000100
     5268.426300       0.000100
     5268.703900       0.000100
     5268.981500       0.000200
     5269.259100       0.000200
     5269.536800       0.000200
     5269.814500       0.000200
     5270.092200       0.000200
     5270.370000       0.000200
     5270.647800       0.000200
     5270.925600       0.000200
     5271.203400       0.000200
     5271.481300       0.000200
     5271.759200       0.000200
     5272.037100       0.000200
     5272.315100       0.000100
     5272.593100       0.000100
     5272.871100       0.000100
     5273.149100       0.000100
     5273.427200       0.000100
     5273.705300       0.000000
     5273.983400       0.000000
     5274.261600       0.000000
     5274.539800       0.000000
     5274.818000       0.000000
     5275.096300       0.000000
     5275.374600       0.000100
     5275.652900       0.000100
     5275.931200       0.000100
