04 , goes_09_sounder_04.flt
Number of data points:
308
Wavenumber (cm-1)   Filter response
      716.700000       0.000003
      716.800000       0.000215
      716.900000       0.000547
      717.000000       0.000911
      717.100000       0.001316
      717.200000       0.001760
      717.300000       0.002246
      717.400000       0.002777
      717.500000       0.003352
      717.600000       0.003963
      717.700000       0.004597
      717.800000       0.005238
      717.900000       0.005873
      718.000000       0.006486
      718.100000       0.007062
      718.200000       0.007589
      718.300000       0.008051
      718.400000       0.008434
      718.500000       0.008723
      718.600000       0.008904
      718.700000       0.008963
      718.800000       0.008883
      718.900000       0.008694
      719.000000       0.008607
      719.100000       0.008903
      719.200000       0.009760
      719.300000       0.010980
      719.400000       0.012277
      719.500000       0.013535
      719.600000       0.014752
      719.700000       0.015926
      719.800000       0.017049
      719.900000       0.018073
      720.000000       0.018897
      720.100000       0.019512
      720.200000       0.020159
      720.300000       0.021115
      720.400000       0.022515
      720.500000       0.024208
      720.600000       0.026025
      720.700000       0.027793
      720.800000       0.029359
      720.900000       0.030738
      721.000000       0.032079
      721.100000       0.033526
      721.200000       0.035228
      721.300000       0.037328
      721.400000       0.039906
      721.500000       0.042914
      721.600000       0.046296
      721.700000       0.050009
      721.800000       0.053981
      721.900000       0.058169
      722.000000       0.062514
      722.100000       0.066954
      722.200000       0.071509
      722.300000       0.076214
      722.400000       0.081127
      722.500000       0.086297
      722.600000       0.091771
      722.700000       0.097598
      722.800000       0.103817
      722.900000       0.110500
      723.000000       0.117689
      723.100000       0.125430
      723.200000       0.133774
      723.300000       0.142733
      723.400000       0.152296
      723.500000       0.162414
      723.600000       0.173064
      723.700000       0.184237
      723.800000       0.195898
      723.900000       0.208049
      724.000000       0.220629
      724.100000       0.233605
      724.200000       0.246949
      724.300000       0.260610
      724.400000       0.274611
      724.500000       0.288860
      724.600000       0.303373
      724.700000       0.318186
      724.800000       0.333230
      724.900000       0.348573
      725.000000       0.364175
      725.100000       0.380067
      725.200000       0.396270
      725.300000       0.412717
      725.400000       0.429373
      725.500000       0.446137
      725.600000       0.462936
      725.700000       0.479724
      725.800000       0.496413
      725.900000       0.512981
      726.000000       0.529328
      726.100000       0.545397
      726.200000       0.561445
      726.300000       0.578104
      726.400000       0.596086
      726.500000       0.616034
      726.600000       0.638741
      726.700000       0.663581
      726.800000       0.686267
      726.900000       0.701177
      727.000000       0.708758
      727.100000       0.717244
      727.200000       0.736027
      727.300000       0.763948
      727.400000       0.776993
      727.500000       0.783587
      727.600000       0.792317
      727.700000       0.806758
      727.800000       0.824337
      727.900000       0.841802
      728.000000       0.848469
      728.100000       0.858153
      728.200000       0.868166
      728.300000       0.876271
      728.400000       0.883922
      728.500000       0.890344
      728.600000       0.895536
      728.700000       0.902893
      728.800000       0.913491
      728.900000       0.924503
      729.000000       0.932865
      729.100000       0.937359
      729.200000       0.940891
      729.300000       0.945144
      729.400000       0.949079
      729.500000       0.952016
      729.600000       0.954036
      729.700000       0.955643
      729.800000       0.957249
      729.900000       0.959017
      730.000000       0.960804
      730.100000       0.962542
      730.200000       0.964225
      730.300000       0.965830
      730.400000       0.967287
      730.500000       0.968494
      730.600000       0.969349
      730.700000       0.969986
      730.800000       0.970924
      730.900000       0.972316
      731.000000       0.973641
      731.100000       0.974522
      731.200000       0.975162
      731.300000       0.975895
      731.400000       0.976720
      731.500000       0.977389
      731.600000       0.977432
      731.700000       0.976684
      731.800000       0.975624
      731.900000       0.974707
      732.000000       0.974241
      732.100000       0.974341
      732.200000       0.974791
      732.300000       0.975158
      732.400000       0.975172
      732.500000       0.975037
      732.600000       0.975161
      732.700000       0.975712
      732.800000       0.976523
      732.900000       0.977337
      733.000000       0.978055
      733.100000       0.978734
      733.200000       0.979381
      733.300000       0.979975
      733.400000       0.980614
      733.500000       0.981468
      733.600000       0.982589
      733.700000       0.983804
      733.800000       0.984961
      733.900000       0.986060
      734.000000       0.987095
      734.100000       0.987935
      734.200000       0.988578
      734.300000       0.989253
      734.400000       0.990210
      734.500000       0.991536
      734.600000       0.993230
      734.700000       0.995187
      734.800000       0.997153
      734.900000       0.998802
      735.000000       0.999832
      735.100000       1.000000
      735.200000       0.999468
      735.300000       0.998648
      735.400000       0.997794
      735.500000       0.997008
      735.600000       0.996119
      735.700000       0.994356
      735.800000       0.990787
      735.900000       0.985083
      736.000000       0.977733
      736.100000       0.969293
      736.200000       0.960476
      736.300000       0.951826
      736.400000       0.943263
      736.500000       0.934575
      736.600000       0.925552
      736.700000       0.915965
      736.800000       0.905631
      736.900000       0.894469
      737.000000       0.882360
      737.100000       0.869068
      737.200000       0.854457
      737.300000       0.838617
      737.400000       0.821789
      737.500000       0.804161
      737.600000       0.785911
      737.700000       0.767200
      737.800000       0.748121
      737.900000       0.728719
      738.000000       0.709015
      738.100000       0.689119
      738.200000       0.669060
      738.300000       0.648910
      738.400000       0.628745
      738.500000       0.608577
      738.600000       0.588376
      738.700000       0.568088
      738.800000       0.547668
      738.900000       0.527043
      739.000000       0.506245
      739.100000       0.485280
      739.200000       0.464174
      739.300000       0.442971
      739.400000       0.421773
      739.500000       0.400693
      739.600000       0.379817
      739.700000       0.359213
      739.800000       0.338872
      739.900000       0.318852
      740.000000       0.299214
      740.100000       0.280088
      740.200000       0.261592
      740.300000       0.243835
      740.400000       0.226916
      740.500000       0.210897
      740.600000       0.195850
      740.700000       0.181844
      740.800000       0.168997
      740.900000       0.157388
      741.000000       0.147027
      741.100000       0.137719
      741.200000       0.129168
      741.300000       0.121077
      741.400000       0.113179
      741.500000       0.105399
      741.600000       0.097790
      741.700000       0.090422
      741.800000       0.083351
      741.900000       0.076644
      742.000000       0.070355
      742.100000       0.064380
      742.200000       0.058170
      742.300000       0.052320
      742.400000       0.048698
      742.500000       0.046739
      742.600000       0.044735
      742.700000       0.042120
      742.800000       0.039286
      742.900000       0.037137
      743.000000       0.035684
      743.100000       0.034291
      743.200000       0.032539
      743.300000       0.030541
      743.400000       0.028665
      743.500000       0.027112
      743.600000       0.025747
      743.700000       0.024228
      743.800000       0.022611
      743.900000       0.021132
      744.000000       0.019747
      744.100000       0.018321
      744.200000       0.016868
      744.300000       0.015654
      744.400000       0.014876
      744.500000       0.014422
      744.600000       0.014079
      744.700000       0.013642
      744.800000       0.013009
      744.900000       0.012213
      745.000000       0.011317
      745.100000       0.010384
      745.200000       0.009474
      745.300000       0.008651
      745.400000       0.007945
      745.500000       0.007346
      745.600000       0.006837
      745.700000       0.006399
      745.800000       0.006016
      745.900000       0.005671
      746.000000       0.005346
      746.100000       0.005026
      746.200000       0.004692
      746.300000       0.004330
      746.400000       0.003943
      746.500000       0.003537
      746.600000       0.003118
      746.700000       0.002694
      746.800000       0.002271
      746.900000       0.001856
      747.000000       0.001455
      747.100000       0.001075
      747.200000       0.000721
      747.300000       0.000408
      747.400000       0.000084
