1  , original file FY2c_VIS_rf.txt
Number of data points:
121
Wavenumber (cm-1)   Filter response
    10000.000000       0.004987
    10050.251300       0.004930
    10101.010100       0.004954
    10152.284300       0.005441
    10204.081600       0.005957
    10256.410300       0.006541
    10309.278400       0.006912
    10362.694300       0.007743
    10416.666700       0.008753
    10471.204200       0.011947
    10526.315800       0.015019
    10582.010600       0.021797
    10638.297900       0.028669
    10695.187200       0.049359
    10752.688200       0.070141
    10810.810800       0.129817
    10869.565200       0.188780
    10928.961700       0.351208
    10989.011000       0.506706
    11049.723800       0.700760
    11111.111100       0.887108
    11173.184400       0.923885
    11235.955100       1.000000
    11299.435000       0.975391
    11363.636400       0.930225
    11428.571400       0.944362
    11494.252900       0.967268
    11560.693600       0.937436
    11627.907000       0.923545
    11695.906400       0.933655
    11764.705900       0.926888
    11834.319500       0.928858
    11904.761900       0.916457
    11976.047900       0.916639
    12048.192800       0.936751
    12121.212100       0.920985
    12195.122000       0.895759
    12269.938700       0.895846
    12345.679000       0.897428
    12422.360200       0.875022
    12500.000000       0.869798
    12578.616400       0.864785
    12658.227800       0.869132
    12738.853500       0.848928
    12820.512800       0.837470
    12903.225800       0.840033
    12987.013000       0.845313
    13071.895400       0.828657
    13157.894700       0.813936
    13245.033100       0.807493
    13333.333300       0.803215
    13422.818800       0.798141
    13513.513500       0.786562
    13605.442200       0.768175
    13698.630100       0.751028
    13793.103400       0.743893
    13888.888900       0.738476
    13986.014000       0.733318
    14084.507000       0.728631
    14184.397200       0.727150
    14285.714300       0.726637
    14388.489200       0.715276
    14492.753600       0.705096
    14598.540100       0.695133
    14705.882400       0.684302
    14814.814800       0.667371
    14925.373100       0.650926
    15037.594000       0.656856
    15151.515200       0.664053
    15267.175600       0.652698
    15384.615400       0.641247
    15503.876000       0.636012
    15625.000000       0.629466
    15748.031500       0.614206
    15873.015900       0.599348
    16000.000000       0.593197
    16129.032300       0.585624
    16260.162600       0.579197
    16393.442600       0.571929
    16528.925600       0.561045
    16666.666700       0.550113
    16806.722700       0.541084
    16949.152500       0.532201
    17094.017100       0.516917
    17241.379300       0.501575
    17391.304300       0.496418
    17543.859600       0.492449
    17699.115000       0.463584
    17857.142900       0.433831
    18018.018000       0.424280
    18181.818200       0.417726
    18348.623900       0.418753
    18518.518500       0.418590
    18691.588800       0.401154
    18867.924500       0.385702
    19047.619000       0.376574
    19230.769200       0.366476
    19417.475700       0.350739
    19607.843100       0.335545
    19801.980200       0.324334
    20000.000000       0.312524
    20202.020200       0.291969
    20408.163300       0.271746
    20618.556700       0.255901
    20833.333300       0.238723
    21052.631600       0.224730
    21276.595700       0.212784
    21505.376300       0.189914
    21739.130400       0.166250
    21978.022000       0.155650
    22222.222200       0.145917
    22471.910100       0.135204
    22727.272700       0.124354
    22988.505700       0.119855
    23255.814000       0.113976
    23529.411800       0.106446
    23809.523800       0.099319
    24096.385500       0.093506
    24390.243900       0.086701
    24691.358000       0.075275
    25000.000000       0.064543
