06 , goes_12_sounder_06.flt
Number of data points:
846
Wavenumber (cm-1)   Filter response
      748.000000       0.000084
      748.100000       0.000079
      748.200000       0.000135
      748.300000       0.000111
      748.400000       0.000083
      748.500000       0.000051
      748.600000       0.000022
      748.700000       0.000001
      748.800000       0.000000
      748.900000       0.000000
      749.000000       0.000000
      749.100000       0.000000
      749.200000       0.000000
      749.300000       0.000008
      749.400000       0.000046
      749.500000       0.000097
      749.600000       0.000151
      749.700000       0.000204
      749.800000       0.000251
      749.900000       0.000285
      750.000000       0.000299
      750.100000       0.000275
      750.200000       0.000203
      750.300000       0.000113
      750.400000       0.000040
      750.500000       0.000008
      750.600000       0.000000
      750.700000       0.000000
      750.800000       0.000000
      750.900000       0.000000
      751.000000       0.000000
      751.100000       0.000000
      751.200000       0.000000
      751.300000       0.000001
      751.400000       0.000002
      751.500000       0.000000
      751.600000       0.000000
      751.700000       0.000000
      751.800000       0.000007
      751.900000       0.000046
      752.000000       0.000117
      752.100000       0.000227
      752.200000       0.000366
      752.300000       0.000504
      752.400000       0.000614
      752.500000       0.000692
      752.600000       0.000746
      752.700000       0.000782
      752.800000       0.000800
      752.900000       0.000796
      753.000000       0.000769
      753.100000       0.000721
      753.200000       0.000651
      753.300000       0.000559
      753.400000       0.000441
      753.500000       0.000292
      753.600000       0.000134
      753.700000       0.000013
      753.800000       0.000000
      753.900000       0.000000
      754.000000       0.000001
      754.100000       0.000008
      754.200000       0.000004
      754.300000       0.000000
      754.400000       0.000000
      754.500000       0.000000
      754.600000       0.000000
      754.700000       0.000000
      754.800000       0.000000
      754.900000       0.000000
      755.000000       0.000000
      755.100000       0.000000
      755.200000       0.000000
      755.300000       0.000000
      755.400000       0.000000
      755.500000       0.000001
      755.600000       0.000001
      755.700000       0.000000
      755.800000       0.000000
      755.900000       0.000000
      756.000000       0.000012
      756.100000       0.000040
      756.200000       0.000066
      756.300000       0.000083
      756.400000       0.000085
      756.500000       0.000073
      756.600000       0.000046
      756.700000       0.000017
      756.800000       0.000000
      756.900000       0.000000
      757.000000       0.000000
      757.100000       0.000003
      757.200000       0.000006
      757.300000       0.000003
      757.400000       0.000000
      757.500000       0.000000
      757.600000       0.000000
      757.700000       0.000048
      757.800000       0.000124
      757.900000       0.000210
      758.000000       0.000295
      758.100000       0.000373
      758.200000       0.000445
      758.300000       0.000506
      758.400000       0.000557
      758.500000       0.000598
      758.600000       0.000628
      758.700000       0.000647
      758.800000       0.000657
      758.900000       0.000655
      759.000000       0.000643
      759.100000       0.000618
      759.200000       0.000581
      759.300000       0.000534
      759.400000       0.000479
      759.500000       0.000419
      759.600000       0.000360
      759.700000       0.000307
      759.800000       0.000263
      759.900000       0.000233
      760.000000       0.000222
      760.100000       0.000235
      760.200000       0.000280
      760.300000       0.000352
      760.400000       0.000448
      760.500000       0.000563
      760.600000       0.000690
      760.700000       0.000821
      760.800000       0.000946
      760.900000       0.001060
      761.000000       0.001153
      761.100000       0.001219
      761.200000       0.001253
      761.300000       0.001245
      761.400000       0.001200
      761.500000       0.001124
      761.600000       0.001021
      761.700000       0.000893
      761.800000       0.000739
      761.900000       0.000565
      762.000000       0.000389
      762.100000       0.000230
      762.200000       0.000104
      762.300000       0.000018
      762.400000       0.000000
      762.500000       0.000000
      762.600000       0.000000
      762.700000       0.000005
      762.800000       0.000003
      762.900000       0.000000
      763.000000       0.000000
      763.100000       0.000000
      763.200000       0.000000
      763.300000       0.000000
      763.400000       0.000000
      763.500000       0.000000
      763.600000       0.000000
      763.700000       0.000000
      763.800000       0.000000
      763.900000       0.000000
      764.000000       0.000000
      764.100000       0.000000
      764.200000       0.000000
      764.300000       0.000000
      764.400000       0.000000
      764.500000       0.000000
      764.600000       0.000000
      764.700000       0.000000
      764.800000       0.000000
      764.900000       0.000001
      765.000000       0.000003
      765.100000       0.000001
      765.200000       0.000000
      765.300000       0.000000
      765.400000       0.000002
      765.500000       0.000052
      765.600000       0.000144
      765.700000       0.000291
      765.800000       0.000506
      765.900000       0.000804
      766.000000       0.001207
      766.100000       0.001722
      766.200000       0.002346
      766.300000       0.003080
      766.400000       0.003886
      766.500000       0.004717
      766.600000       0.005530
      766.700000       0.006286
      766.800000       0.006944
      766.900000       0.007459
      767.000000       0.007784
      767.100000       0.007856
      767.200000       0.007653
      767.300000       0.007222
      767.400000       0.006587
      767.500000       0.005804
      767.600000       0.004937
      767.700000       0.004042
      767.800000       0.003174
      767.900000       0.002393
      768.000000       0.001756
      768.100000       0.001297
      768.200000       0.001069
      768.300000       0.001092
      768.400000       0.001317
      768.500000       0.001712
      768.600000       0.002243
      768.700000       0.002874
      768.800000       0.003583
      768.900000       0.004339
      769.000000       0.005109
      769.100000       0.005859
      769.200000       0.006582
      769.300000       0.007273
      769.400000       0.007942
      769.500000       0.008615
      769.600000       0.009300
      769.700000       0.010009
      769.800000       0.010768
      769.900000       0.011602
      770.000000       0.012518
      770.100000       0.013532
      770.200000       0.014675
      770.300000       0.015953
      770.400000       0.017339
      770.500000       0.018803
      770.600000       0.020335
      770.700000       0.021941
      770.800000       0.023635
      770.900000       0.025388
      771.000000       0.027165
      771.100000       0.028960
      771.200000       0.030798
      771.300000       0.032715
      771.400000       0.034695
      771.500000       0.036742
      771.600000       0.038911
      771.700000       0.041226
      771.800000       0.043708
      771.900000       0.046398
      772.000000       0.049312
      772.100000       0.052473
      772.200000       0.055926
      772.300000       0.059670
      772.400000       0.063704
      772.500000       0.068058
      772.600000       0.072787
      772.700000       0.077813
      772.800000       0.083060
      772.900000       0.088620
      773.000000       0.094533
      773.100000       0.100777
      773.200000       0.107388
      773.300000       0.114373
      773.400000       0.121695
      773.500000       0.129466
      773.600000       0.137767
      773.700000       0.146350
      773.800000       0.155241
      773.900000       0.164689
      774.000000       0.174560
      774.100000       0.184829
      774.200000       0.195765
      774.300000       0.207361
      774.400000       0.219482
      774.500000       0.232148
      774.600000       0.245342
      774.700000       0.258833
      774.800000       0.272751
      774.900000       0.287427
      775.000000       0.302769
      775.100000       0.318653
      775.200000       0.335033
      775.300000       0.352031
      775.400000       0.369756
      775.500000       0.387927
      775.600000       0.406502
      775.700000       0.425641
      775.800000       0.445025
      775.900000       0.464335
      776.000000       0.483404
      776.100000       0.502595
      776.200000       0.522330
      776.300000       0.542019
      776.400000       0.561262
      776.500000       0.580037
      776.600000       0.598954
      776.700000       0.618431
      776.800000       0.637553
      776.900000       0.656326
      777.000000       0.675478
      777.100000       0.694230
      777.200000       0.712102
      777.300000       0.730076
      777.400000       0.747931
      777.500000       0.764832
      777.600000       0.781416
      777.700000       0.797752
      777.800000       0.812861
      777.900000       0.827034
      778.000000       0.840680
      778.100000       0.853008
      778.200000       0.863704
      778.300000       0.873168
      778.400000       0.881571
      778.500000       0.889011
      778.600000       0.896013
      778.700000       0.902727
      778.800000       0.908899
      778.900000       0.914381
      779.000000       0.919195
      779.100000       0.923673
      779.200000       0.928422
      779.300000       0.933968
      779.400000       0.939848
      779.500000       0.945359
      779.600000       0.949828
      779.700000       0.953901
      779.800000       0.958411
      779.900000       0.963298
      780.000000       0.968151
      780.100000       0.972389
      780.200000       0.975836
      780.300000       0.978681
      780.400000       0.981615
      780.500000       0.984600
      780.600000       0.987202
      780.700000       0.989061
      780.800000       0.990072
      780.900000       0.990476
      781.000000       0.990615
      781.100000       0.990628
      781.200000       0.989754
      781.300000       0.987820
      781.400000       0.985443
      781.500000       0.982747
      781.600000       0.979826
      781.700000       0.977243
      781.800000       0.975125
      781.900000       0.973282
      782.000000       0.971536
      782.100000       0.970041
      782.200000       0.969309
      782.300000       0.969311
      782.400000       0.969849
      782.500000       0.970786
      782.600000       0.971908
      782.700000       0.972991
      782.800000       0.973947
      782.900000       0.974536
      783.000000       0.974072
      783.100000       0.972719
      783.200000       0.971158
      783.300000       0.969051
      783.400000       0.966360
      783.500000       0.963576
      783.600000       0.960729
      783.700000       0.957679
      783.800000       0.954996
      783.900000       0.953141
      784.000000       0.952310
      784.100000       0.952850
      784.200000       0.954727
      784.300000       0.957739
      784.400000       0.961958
      784.500000       0.967351
      784.600000       0.973352
      784.700000       0.979285
      784.800000       0.984505
      784.900000       0.988714
      785.000000       0.991918
      785.100000       0.994154
      785.200000       0.995097
      785.300000       0.994460
      785.400000       0.992551
      785.500000       0.989725
      785.600000       0.986350
      785.700000       0.982699
      785.800000       0.979019
      785.900000       0.976041
      786.000000       0.974401
      786.100000       0.973599
      786.200000       0.973520
      786.300000       0.974750
      786.400000       0.977561
      786.500000       0.981545
      786.600000       0.985555
      786.700000       0.989308
      786.800000       0.992976
      786.900000       0.996246
      787.000000       0.998717
      787.100000       1.000000
      787.200000       0.999937
      787.300000       0.998716
      787.400000       0.996031
      787.500000       0.992090
      787.600000       0.987653
      787.700000       0.982896
      787.800000       0.978064
      787.900000       0.973940
      788.000000       0.970543
      788.100000       0.967307
      788.200000       0.964661
      788.300000       0.963190
      788.400000       0.963087
      788.500000       0.963749
      788.600000       0.964403
      788.700000       0.965284
      788.800000       0.966542
      788.900000       0.967950
      789.000000       0.969265
      789.100000       0.970387
      789.200000       0.971683
      789.300000       0.973058
      789.400000       0.974049
      789.500000       0.974800
      789.600000       0.975320
      789.700000       0.975049
      789.800000       0.974411
      789.900000       0.974178
      790.000000       0.973468
      790.100000       0.972039
      790.200000       0.970933
      790.300000       0.969728
      790.400000       0.967715
      790.500000       0.965739
      790.600000       0.964136
      790.700000       0.962453
      790.800000       0.960362
      790.900000       0.957772
      791.000000       0.954992
      791.100000       0.952351
      791.200000       0.950114
      791.300000       0.948072
      791.400000       0.945891
      791.500000       0.943226
      791.600000       0.940225
      791.700000       0.937223
      791.800000       0.934071
      791.900000       0.930820
      792.000000       0.927877
      792.100000       0.925004
      792.200000       0.921854
      792.300000       0.918509
      792.400000       0.915020
      792.500000       0.911376
      792.600000       0.907572
      792.700000       0.903644
      792.800000       0.899713
      792.900000       0.895518
      793.000000       0.890723
      793.100000       0.886003
      793.200000       0.881680
      793.300000       0.877300
      793.400000       0.872785
      793.500000       0.868259
      793.600000       0.863803
      793.700000       0.859285
      793.800000       0.854379
      793.900000       0.849301
      794.000000       0.844355
      794.100000       0.839594
      794.200000       0.834777
      794.300000       0.829592
      794.400000       0.824540
      794.500000       0.820038
      794.600000       0.816003
      794.700000       0.812203
      794.800000       0.808412
      794.900000       0.804653
      795.000000       0.800943
      795.100000       0.797256
      795.200000       0.793606
      795.300000       0.789998
      795.400000       0.786368
      795.500000       0.782949
      795.600000       0.780137
      795.700000       0.777465
      795.800000       0.774609
      795.900000       0.772013
      796.000000       0.769859
      796.100000       0.768063
      796.200000       0.766607
      796.300000       0.765468
      796.400000       0.764480
      796.500000       0.763780
      796.600000       0.763485
      796.700000       0.762886
      796.800000       0.761742
      796.900000       0.760383
      797.000000       0.758765
      797.100000       0.756694
      797.200000       0.754125
      797.300000       0.751192
      797.400000       0.747998
      797.500000       0.744633
      797.600000       0.741283
      797.700000       0.738215
      797.800000       0.735324
      797.900000       0.732505
      798.000000       0.730630
      798.100000       0.729896
      798.200000       0.729657
      798.300000       0.730441
      798.400000       0.732573
      798.500000       0.735106
      798.600000       0.737882
      798.700000       0.741495
      798.800000       0.745385
      798.900000       0.748933
      799.000000       0.752243
      799.100000       0.755551
      799.200000       0.759062
      799.300000       0.761858
      799.400000       0.763654
      799.500000       0.765632
      799.600000       0.767959
      799.700000       0.770320
      799.800000       0.772824
      799.900000       0.775743
      800.000000       0.779414
      800.100000       0.784103
      800.200000       0.789885
      800.300000       0.795997
      800.400000       0.802314
      800.500000       0.809364
      800.600000       0.816684
      800.700000       0.823778
      800.800000       0.830573
      800.900000       0.836739
      801.000000       0.841925
      801.100000       0.846872
      801.200000       0.851314
      801.300000       0.853136
      801.400000       0.853097
      801.500000       0.852662
      801.600000       0.850874
      801.700000       0.847735
      801.800000       0.844261
      801.900000       0.839838
      802.000000       0.834071
      802.100000       0.827894
      802.200000       0.821180
      802.300000       0.813245
      802.400000       0.804373
      802.500000       0.794848
      802.600000       0.784593
      802.700000       0.773541
      802.800000       0.761710
      802.900000       0.749064
      803.000000       0.735536
      803.100000       0.721135
      803.200000       0.705776
      803.300000       0.689443
      803.400000       0.672557
      803.500000       0.655194
      803.600000       0.637133
      803.700000       0.618545
      803.800000       0.599523
      803.900000       0.579856
      804.000000       0.559746
      804.100000       0.539487
      804.200000       0.519101
      804.300000       0.498639
      804.400000       0.478131
      804.500000       0.457634
      804.600000       0.437155
      804.700000       0.416722
      804.800000       0.396370
      804.900000       0.376079
      805.000000       0.356071
      805.100000       0.336386
      805.200000       0.316750
      805.300000       0.297249
      805.400000       0.278104
      805.500000       0.259440
      805.600000       0.241299
      805.700000       0.223771
      805.800000       0.206998
      805.900000       0.191051
      806.000000       0.176190
      806.100000       0.162551
      806.200000       0.150033
      806.300000       0.138732
      806.400000       0.128624
      806.500000       0.119510
      806.600000       0.111288
      806.700000       0.103841
      806.800000       0.097008
      806.900000       0.090729
      807.000000       0.084989
      807.100000       0.079663
      807.200000       0.074623
      807.300000       0.069850
      807.400000       0.065326
      807.500000       0.061024
      807.600000       0.056910
      807.700000       0.052973
      807.800000       0.049198
      807.900000       0.045554
      808.000000       0.042032
      808.100000       0.038619
      808.200000       0.035298
      808.300000       0.032061
      808.400000       0.028933
      808.500000       0.025966
      808.600000       0.023201
      808.700000       0.020653
      808.800000       0.018371
      808.900000       0.016398
      809.000000       0.014782
      809.100000       0.013600
      809.200000       0.012851
      809.300000       0.012487
      809.400000       0.012493
      809.500000       0.012770
      809.600000       0.013206
      809.700000       0.013712
      809.800000       0.014206
      809.900000       0.014597
      810.000000       0.014792
      810.100000       0.014702
      810.200000       0.014221
      810.300000       0.013357
      810.400000       0.012196
      810.500000       0.010809
      810.600000       0.009284
      810.700000       0.007715
      810.800000       0.006187
      810.900000       0.004781
      811.000000       0.003605
      811.100000       0.002747
      811.200000       0.002226
      811.300000       0.002087
      811.400000       0.002315
      811.500000       0.002800
      811.600000       0.003455
      811.700000       0.004204
      811.800000       0.004969
      811.900000       0.005687
      812.000000       0.006278
      812.100000       0.006650
      812.200000       0.006722
      812.300000       0.006525
      812.400000       0.006084
      812.500000       0.005425
      812.600000       0.004595
      812.700000       0.003618
      812.800000       0.002571
      812.900000       0.001594
      813.000000       0.000833
      813.100000       0.000314
      813.200000       0.000015
      813.300000       0.000000
      813.400000       0.000000
      813.500000       0.000006
      813.600000       0.000020
      813.700000       0.000009
      813.800000       0.000000
      813.900000       0.000000
      814.000000       0.000000
      814.100000       0.000001
      814.200000       0.000001
      814.300000       0.000000
      814.400000       0.000000
      814.500000       0.000000
      814.600000       0.000000
      814.700000       0.000001
      814.800000       0.000002
      814.900000       0.000000
      815.000000       0.000000
      815.100000       0.000000
      815.200000       0.000009
      815.300000       0.000034
      815.400000       0.000053
      815.500000       0.000047
      815.600000       0.000023
      815.700000       0.000001
      815.800000       0.000000
      815.900000       0.000001
      816.000000       0.000000
      816.100000       0.000000
      816.200000       0.000000
      816.300000       0.000021
      816.400000       0.000118
      816.500000       0.000255
      816.600000       0.000419
      816.700000       0.000596
      816.800000       0.000772
      816.900000       0.000936
      817.000000       0.001078
      817.100000       0.001186
      817.200000       0.001248
      817.300000       0.001268
      817.400000       0.001248
      817.500000       0.001190
      817.600000       0.001106
      817.700000       0.001006
      817.800000       0.000897
      817.900000       0.000788
      818.000000       0.000686
      818.100000       0.000599
      818.200000       0.000532
      818.300000       0.000494
      818.400000       0.000481
      818.500000       0.000488
      818.600000       0.000512
      818.700000       0.000548
      818.800000       0.000591
      818.900000       0.000638
      819.000000       0.000685
      819.100000       0.000728
      819.200000       0.000765
      819.300000       0.000793
      819.400000       0.000811
      819.500000       0.000819
      819.600000       0.000819
      819.700000       0.000811
      819.800000       0.000795
      819.900000       0.000773
      820.000000       0.000744
      820.100000       0.000709
      820.200000       0.000668
      820.300000       0.000621
      820.400000       0.000571
      820.500000       0.000518
      820.600000       0.000465
      820.700000       0.000415
      820.800000       0.000368
      820.900000       0.000327
      821.000000       0.000294
      821.100000       0.000272
      821.200000       0.000260
      821.300000       0.000260
      821.400000       0.000272
      821.500000       0.000291
      821.600000       0.000311
      821.700000       0.000329
      821.800000       0.000344
      821.900000       0.000352
      822.000000       0.000346
      822.100000       0.000321
      822.200000       0.000270
      822.300000       0.000204
      822.400000       0.000133
      822.500000       0.000069
      822.600000       0.000019
      822.700000       0.000000
      822.800000       0.000000
      822.900000       0.000000
      823.000000       0.000002
      823.100000       0.000002
      823.200000       0.000000
      823.300000       0.000000
      823.400000       0.000000
      823.500000       0.000000
      823.600000       0.000001
      823.700000       0.000001
      823.800000       0.000000
      823.900000       0.000000
      824.000000       0.000014
      824.100000       0.000056
      824.200000       0.000124
      824.300000       0.000195
      824.400000       0.000247
      824.500000       0.000280
      824.600000       0.000303
      824.700000       0.000320
      824.800000       0.000335
      824.900000       0.000347
      825.000000       0.000357
      825.100000       0.000367
      825.200000       0.000378
      825.300000       0.000393
      825.400000       0.000409
      825.500000       0.000423
      825.600000       0.000436
      825.700000       0.000445
      825.800000       0.000447
      825.900000       0.000440
      826.000000       0.000425
      826.100000       0.000397
      826.200000       0.000354
      826.300000       0.000292
      826.400000       0.000212
      826.500000       0.000131
      826.600000       0.000067
      826.700000       0.000027
      826.800000       0.000004
      826.900000       0.000000
      827.000000       0.000000
      827.100000       0.000000
      827.200000       0.000001
      827.300000       0.000001
      827.400000       0.000000
      827.500000       0.000000
      827.600000       0.000000
      827.700000       0.000000
      827.800000       0.000000
      827.900000       0.000000
      828.000000       0.000000
      828.100000       0.000000
      828.200000       0.000000
      828.300000       0.000000
      828.400000       0.000000
      828.500000       0.000000
      828.600000       0.000000
      828.700000       0.000000
      828.800000       0.000000
      828.900000       0.000001
      829.000000       0.000001
      829.100000       0.000000
      829.200000       0.000000
      829.300000       0.000000
      829.400000       0.000016
      829.500000       0.000059
      829.600000       0.000130
      829.700000       0.000233
      829.800000       0.000351
      829.900000       0.000460
      830.000000       0.000543
      830.100000       0.000596
      830.200000       0.000614
      830.300000       0.000599
      830.400000       0.000558
      830.500000       0.000496
      830.600000       0.000422
      830.700000       0.000344
      830.800000       0.000271
      830.900000       0.000212
      831.000000       0.000176
      831.100000       0.000173
      831.200000       0.000206
      831.300000       0.000280
      831.400000       0.000395
      831.500000       0.000536
      831.600000       0.000695
      831.700000       0.000859
      831.800000       0.001020
      831.900000       0.001169
      832.000000       0.001294
      832.100000       0.001386
      832.200000       0.001429
      832.300000       0.001095
      832.400000       0.000395
      832.500000       0.000371
