  12  ,noaa_15_hirs_12.flt
Number of data points:
85
Wavenumber (cm-1)   Filter response
     1491.000000       0.000000
     1492.000000       0.003997
     1493.000000       0.007072
     1494.000000       0.015063
     1495.000000       0.015045
     1496.000000       0.020057
     1497.000000       0.028013
     1498.000000       0.042754
     1499.000000       0.052553
     1500.000000       0.062944
     1501.000000       0.080004
     1502.000000       0.112610
     1503.000000       0.202650
     1504.000000       0.282110
     1505.000000       0.336610
     1506.000000       0.409400
     1507.000000       0.610940
     1508.000000       0.736200
     1509.000000       0.821480
     1510.000000       0.865630
     1511.000000       0.929030
     1512.000000       0.984470
     1513.000000       1.000000
     1514.000000       0.996520
     1515.000000       0.963680
     1516.000000       0.937520
     1517.000000       0.902200
     1518.000000       0.882150
     1519.000000       0.858970
     1520.000000       0.848720
     1521.000000       0.849190
     1522.000000       0.854430
     1523.000000       0.854370
     1524.000000       0.857050
     1525.000000       0.866480
     1526.000000       0.879220
     1527.000000       0.896130
     1528.000000       0.897400
     1529.000000       0.899080
     1530.000000       0.891100
     1531.000000       0.871900
     1532.000000       0.852030
     1533.000000       0.835130
     1534.000000       0.811770
     1535.000000       0.795190
     1536.000000       0.758160
     1537.000000       0.730990
     1538.000000       0.710620
     1539.000000       0.697300
     1540.000000       0.685330
     1541.000000       0.681280
     1542.000000       0.678900
     1543.000000       0.677700
     1544.000000       0.676390
     1545.000000       0.676000
     1546.000000       0.670460
     1547.000000       0.664880
     1548.000000       0.657450
     1549.000000       0.646810
     1550.000000       0.626020
     1551.000000       0.607980
     1552.000000       0.581810
     1553.000000       0.560610
     1554.000000       0.541040
     1555.000000       0.476310
     1556.000000       0.413350
     1557.000000       0.381870
     1558.000000       0.345980
     1559.000000       0.257370
     1560.000000       0.205550
     1561.000000       0.188710
     1562.000000       0.172050
     1563.000000       0.144210
     1564.000000       0.093966
     1565.000000       0.062892
     1566.000000       0.041393
     1567.000000       0.023994
     1568.000000       0.016950
     1569.000000       0.010342
     1570.000000       0.005486
     1571.000000       0.004055
     1572.000000       0.003432
     1573.000000       0.002353
     1574.000000       0.001623
     1575.000000       0.000000
