8,   channel 8 SRF (incl. blur) from file SRF_SIRS-D_Ch08.asc received July 2019 from Carsten Stanfuss
Number of data points:
281
Wavenumber (cm-1)   Filter response
      661.700000       0.000000
      661.750000       0.000000
      661.800000       0.000000
      661.850000       0.000000
      661.900000       0.000000
      661.950000       0.000000
      662.000000       0.000000
      662.050000       0.000000
      662.100000       0.000000
      662.150000       0.000000
      662.200000       0.000000
      662.250000       0.000000
      662.300000       0.000000
      662.350000       0.000000
      662.400000       0.000000
      662.450000       0.000000
      662.500000       0.000000
      662.550000       0.000000
      662.600000       0.000006
      662.650000       0.000211
      662.700000       0.000710
      662.750000       0.001502
      662.800000       0.002587
      662.850000       0.003965
      662.900000       0.005637
      662.950000       0.007602
      663.000000       0.009861
      663.050000       0.012412
      663.100000       0.015257
      663.150000       0.018395
      663.200000       0.021827
      663.250000       0.025552
      663.300000       0.029570
      663.350000       0.033881
      663.400000       0.038486
      663.450000       0.043384
      663.500000       0.048575
      663.550000       0.054060
      663.600000       0.059838
      663.650000       0.065909
      663.700000       0.072273
      663.750000       0.078931
      663.800000       0.085882
      663.850000       0.093126
      663.900000       0.100664
      663.950000       0.108495
      664.000000       0.116619
      664.050000       0.125037
      664.100000       0.133747
      664.150000       0.142752
      664.200000       0.152049
      664.250000       0.161640
      664.300000       0.171524
      664.350000       0.181701
      664.400000       0.192166
      664.450000       0.202724
      664.500000       0.213283
      664.550000       0.223841
      664.600000       0.234400
      664.650000       0.244958
      664.700000       0.255517
      664.750000       0.266075
      664.800000       0.276634
      664.850000       0.287192
      664.900000       0.297751
      664.950000       0.308310
      665.000000       0.318868
      665.050000       0.329427
      665.100000       0.339985
      665.150000       0.350544
      665.200000       0.361102
      665.250000       0.371661
      665.300000       0.382219
      665.350000       0.392778
      665.400000       0.403336
      665.450000       0.413895
      665.500000       0.424454
      665.550000       0.435012
      665.600000       0.445571
      665.650000       0.456129
      665.700000       0.466688
      665.750000       0.477246
      665.800000       0.487805
      665.850000       0.498363
      665.900000       0.508922
      665.950000       0.519481
      666.000000       0.530039
      666.050000       0.540598
      666.100000       0.551156
      666.150000       0.561715
      666.200000       0.572273
      666.250000       0.582832
      666.300000       0.593390
      666.350000       0.603949
      666.400000       0.614507
      666.450000       0.625066
      666.500000       0.635625
      666.550000       0.646183
      666.600000       0.656742
      666.650000       0.667300
      666.700000       0.677859
      666.750000       0.688417
      666.800000       0.698976
      666.850000       0.709534
      666.900000       0.720093
      666.950000       0.730651
      667.000000       0.741210
      667.050000       0.751769
      667.100000       0.762327
      667.150000       0.772886
      667.200000       0.783444
      667.250000       0.794003
      667.300000       0.804561
      667.350000       0.815120
      667.400000       0.825678
      667.450000       0.836237
      667.500000       0.846795
      667.550000       0.857354
      667.600000       0.867907
      667.650000       0.878260
      667.700000       0.888320
      667.750000       0.898087
      667.800000       0.907560
      667.850000       0.916740
      667.900000       0.925627
      667.950000       0.934220
      668.000000       0.942520
      668.050000       0.950433
      668.100000       0.957766
      668.150000       0.964512
      668.200000       0.970671
      668.250000       0.976243
      668.300000       0.981229
      668.350000       0.985629
      668.400000       0.989441
      668.450000       0.992668
      668.500000       0.995307
      668.550000       0.997360
      668.600000       0.998827
      668.650000       0.999707
      668.700000       1.000000
      668.750000       0.999707
      668.800000       0.998827
      668.850000       0.997360
      668.900000       0.995307
      668.950000       0.992668
      669.000000       0.989441
      669.050000       0.985629
      669.100000       0.981229
      669.150000       0.976243
      669.200000       0.970671
      669.250000       0.964512
      669.300000       0.957766
      669.350000       0.950433
      669.400000       0.942520
      669.450000       0.934220
      669.500000       0.925627
      669.550000       0.916740
      669.600000       0.907560
      669.650000       0.898087
      669.700000       0.888320
      669.750000       0.878260
      669.800000       0.867907
      669.850000       0.857354
      669.900000       0.846795
      669.950000       0.836237
      670.000000       0.825678
      670.050000       0.815120
      670.100000       0.804561
      670.150000       0.794003
      670.200000       0.783444
      670.250000       0.772886
      670.300000       0.762327
      670.350000       0.751769
      670.400000       0.741210
      670.450000       0.730651
      670.500000       0.720093
      670.550000       0.709534
      670.600000       0.698976
      670.650000       0.688417
      670.700000       0.677859
      670.750000       0.667300
      670.800000       0.656742
      670.850000       0.646183
      670.900000       0.635625
      670.950000       0.625066
      671.000000       0.614507
      671.050000       0.603949
      671.100000       0.593390
      671.150000       0.582832
      671.200000       0.572273
      671.250000       0.561715
      671.300000       0.551156
      671.350000       0.540598
      671.400000       0.530039
      671.450000       0.519481
      671.500000       0.508922
      671.550000       0.498363
      671.600000       0.487805
      671.650000       0.477246
      671.700000       0.466688
      671.750000       0.456129
      671.800000       0.445571
      671.850000       0.435012
      671.900000       0.424454
      671.950000       0.413895
      672.000000       0.403336
      672.050000       0.392778
      672.100000       0.382219
      672.150000       0.371661
      672.200000       0.361102
      672.250000       0.350544
      672.300000       0.339985
      672.350000       0.329427
      672.400000       0.318868
      672.450000       0.308310
      672.500000       0.297751
      672.550000       0.287192
      672.600000       0.276634
      672.650000       0.266075
      672.700000       0.255517
      672.750000       0.244958
      672.800000       0.234400
      672.850000       0.223841
      672.900000       0.213283
      672.950000       0.202724
      673.000000       0.192166
      673.050000       0.181701
      673.100000       0.171524
      673.150000       0.161640
      673.200000       0.152049
      673.250000       0.142752
      673.300000       0.133747
      673.350000       0.125037
      673.400000       0.116619
      673.450000       0.108495
      673.500000       0.100664
      673.550000       0.093126
      673.600000       0.085882
      673.650000       0.078931
      673.700000       0.072273
      673.750000       0.065909
      673.800000       0.059838
      673.850000       0.054060
      673.900000       0.048575
      673.950000       0.043384
      674.000000       0.038486
      674.050000       0.033881
      674.100000       0.029570
      674.150000       0.025552
      674.200000       0.021827
      674.250000       0.018395
      674.300000       0.015257
      674.350000       0.012412
      674.400000       0.009861
      674.450000       0.007602
      674.500000       0.005637
      674.550000       0.003965
      674.600000       0.002587
      674.650000       0.001502
      674.700000       0.000710
      674.750000       0.000211
      674.800000       0.000006
      674.850000       0.000000
      674.900000       0.000000
      674.950000       0.000000
      675.000000       0.000000
      675.050000       0.000000
      675.100000       0.000000
      675.150000       0.000000
      675.200000       0.000000
      675.250000       0.000000
      675.300000       0.000000
      675.350000       0.000000
      675.400000       0.000000
      675.450000       0.000000
      675.500000       0.000000
      675.550000       0.000000
      675.600000       0.000000
      675.650000       0.000000
      675.700000       0.000000
