04  , Filter noaa_12_avhrr_04.flt
Number of data points:
60
Wavenumber (cm-1)   Filter response
      847.457000       0.019002
      850.261200       0.020182
      853.065400       0.020114
      855.869600       0.017693
      858.673800       0.016915
      861.478000       0.028111
      864.282200       0.061357
      867.086400       0.121765
      869.890600       0.212139
      872.694800       0.329058
      875.499000       0.451526
      878.303200       0.555766
      881.107400       0.631530
      883.911600       0.686287
      886.715800       0.728533
      889.520000       0.764077
      892.324200       0.796842
      895.128400       0.829834
      897.932600       0.860362
      900.736800       0.883137
      903.541000       0.894201
      906.345200       0.896786
      909.149400       0.896059
      911.953600       0.896624
      914.757800       0.900339
      917.562000       0.908577
      920.366200       0.921903
      923.170400       0.939105
      925.974600       0.958407
      928.778800       0.977548
      931.583000       0.992812
      934.387200       1.000000
      937.191400       0.996285
      939.995600       0.985786
      942.799800       0.974883
      945.604000       0.967776
      948.408200       0.954531
      951.212400       0.918107
      954.016600       0.842756
      956.820800       0.730795
      959.625000       0.598805
      962.429200       0.463835
      965.233400       0.339081
      968.037600       0.231578
      970.841800       0.147795
      973.646000       0.091940
      976.450200       0.058970
      979.254400       0.041425
      982.058600       0.032063
      984.862800       0.026849
      987.667000       0.024256
      990.471200       0.022827
      993.275400       0.021497
      996.079600       0.020256
      998.883800       0.019280
     1001.688000       0.018725
     1004.492200       0.018585
     1007.296400       0.018723
     1010.100600       0.019002
     1012.904800       0.000000
