  14  ,noaa_11_hirs_14.flt
Number of data points:
101
Wavenumber (cm-1)   Filter response
     2180.100000       0.000000
     2180.700000       0.003269
     2181.300000       0.003258
     2181.900000       0.003246
     2182.500000       0.005464
     2183.100000       0.003634
     2183.700000       0.000366
     2184.300000       0.005251
     2184.900000       0.009546
     2185.500000       0.000932
     2186.100000       0.000916
     2186.700000       0.002139
     2187.400000       0.006263
     2188.000000       0.008960
     2188.600000       0.012921
     2189.200000       0.017323
     2189.800000       0.023633
     2190.400000       0.029888
     2191.000000       0.037561
     2191.600000       0.047780
     2192.200000       0.062233
     2192.800000       0.074045
     2193.400000       0.093909
     2193.900000       0.123950
     2194.500000       0.154670
     2195.200000       0.184400
     2195.700000       0.229170
     2196.300000       0.273770
     2196.900000       0.322470
     2197.500000       0.377760
     2198.100000       0.435730
     2198.600000       0.489890
     2199.300000       0.544780
     2199.800000       0.598050
     2200.400000       0.649960
     2201.100000       0.697500
     2201.700000       0.735340
     2202.300000       0.770960
     2202.900000       0.797490
     2203.500000       0.823350
     2204.100000       0.846210
     2204.700000       0.867160
     2205.200000       0.885270
     2205.900000       0.909640
     2206.500000       0.928500
     2207.100000       0.943620
     2207.700000       0.958580
     2208.300000       0.978730
     2208.800000       0.988860
     2209.400000       0.995660
     2210.000000       1.000000
     2210.700000       0.999400
     2211.300000       0.994420
     2211.900000       0.989180
     2212.500000       0.978730
     2213.100000       0.966640
     2213.700000       0.944720
     2214.300000       0.918690
     2214.900000       0.894170
     2215.500000       0.863110
     2216.100000       0.824110
     2216.700000       0.784040
     2217.300000       0.741970
     2217.900000       0.693270
     2218.500000       0.643490
     2219.200000       0.591060
     2219.700000       0.536480
     2220.400000       0.487420
     2221.000000       0.430340
     2221.600000       0.379820
     2222.200000       0.323940
     2222.800000       0.275250
     2223.400000       0.245860
     2224.000000       0.207530
     2224.600000       0.168820
     2225.200000       0.135520
     2225.800000       0.114790
     2226.400000       0.093954
     2227.000000       0.076677
     2227.600000       0.065698
     2228.200000       0.054821
     2228.800000       0.043626
     2229.400000       0.033361
     2230.000000       0.028686
     2230.600000       0.025898
     2231.200000       0.022816
     2231.800000       0.017019
     2232.400000       0.014685
     2233.000000       0.010732
     2233.600000       0.006999
     2234.200000       0.006973
     2234.800000       0.006947
     2235.400000       0.006923
     2236.000000       0.004585
     2236.600000       0.004564
     2237.100000       0.004538
     2237.700000       0.004511
     2238.300000       0.002400
     2238.900000       0.002373
     2239.500000       0.000028
     2240.100000       0.000000
