10,   channel 10 SRF from file SRF_SSH-1_Delivery_220520/SRF_DMSP-F4_SSH_Chan10.asc received June 2022 from SPASCIA
Number of data points:
294
Wavenumber (cm-1)   Filter response
      663.900000       0.000930
      664.000000       0.001020
      664.100000       0.001120
      664.200000       0.001230
      664.300000       0.001350
      664.400000       0.001480
      664.500000       0.001630
      664.600000       0.001780
      664.700000       0.001950
      664.800000       0.002130
      664.900000       0.002330
      665.000000       0.002550
      665.100000       0.002780
      665.200000       0.003030
      665.300000       0.003300
      665.400000       0.003600
      665.500000       0.003920
      665.600000       0.004270
      665.700000       0.004640
      665.800000       0.005040
      665.900000       0.005480
      666.000000       0.005940
      666.100000       0.006450
      666.200000       0.006990
      666.300000       0.007570
      666.400000       0.008190
      666.500000       0.008860
      666.600000       0.009580
      666.700000       0.010350
      666.800000       0.011180
      666.900000       0.012060
      667.000000       0.013000
      667.100000       0.014010
      667.200000       0.015090
      667.300000       0.016240
      667.400000       0.017470
      667.500000       0.018770
      667.600000       0.020160
      667.700000       0.021650
      667.800000       0.023220
      667.900000       0.024890
      668.000000       0.026670
      668.100000       0.028550
      668.200000       0.030550
      668.300000       0.032660
      668.400000       0.034900
      668.500000       0.037270
      668.600000       0.039770
      668.700000       0.042420
      668.800000       0.045210
      668.900000       0.048150
      669.000000       0.051250
      669.100000       0.054520
      669.200000       0.057950
      669.300000       0.061570
      669.400000       0.065360
      669.500000       0.069350
      669.600000       0.073530
      669.700000       0.077910
      669.800000       0.082490
      669.900000       0.087300
      670.000000       0.092320
      670.100000       0.097560
      670.200000       0.105830
      670.300000       0.116760
      670.400000       0.128120
      670.500000       0.139910
      670.600000       0.152120
      670.700000       0.164750
      670.800000       0.177790
      670.900000       0.191240
      671.000000       0.205090
      671.100000       0.219320
      671.200000       0.233930
      671.300000       0.248910
      671.400000       0.264230
      671.500000       0.279900
      671.600000       0.295890
      671.700000       0.312180
      671.800000       0.328750
      671.900000       0.345600
      672.000000       0.362690
      672.100000       0.380000
      672.200000       0.397520
      672.300000       0.415210
      672.400000       0.433060
      672.500000       0.451030
      672.600000       0.469110
      672.700000       0.487260
      672.800000       0.503590
      672.900000       0.515600
      673.000000       0.527680
      673.100000       0.539820
      673.200000       0.552020
      673.300000       0.564250
      673.400000       0.576520
      673.500000       0.588810
      673.600000       0.601120
      673.700000       0.613430
      673.800000       0.625740
      673.900000       0.638030
      674.000000       0.650290
      674.100000       0.662520
      674.200000       0.674700
      674.300000       0.686820
      674.400000       0.698870
      674.500000       0.710830
      674.600000       0.722710
      674.700000       0.734480
      674.800000       0.746130
      674.900000       0.757660
      675.000000       0.769040
      675.100000       0.780280
      675.200000       0.791360
      675.300000       0.802260
      675.400000       0.812970
      675.500000       0.823490
      675.600000       0.833810
      675.700000       0.843900
      675.800000       0.853770
      675.900000       0.863390
      676.000000       0.872760
      676.100000       0.881870
      676.200000       0.890710
      676.300000       0.899270
      676.400000       0.907530
      676.500000       0.915500
      676.600000       0.923150
      676.700000       0.930480
      676.800000       0.937490
      676.900000       0.944160
      677.000000       0.950480
      677.100000       0.956450
      677.200000       0.962070
      677.300000       0.967310
      677.400000       0.972190
      677.500000       0.976690
      677.600000       0.980800
      677.700000       0.984530
      677.800000       0.987860
      677.900000       0.990790
      678.000000       0.993330
      678.100000       0.995460
      678.200000       0.997180
      678.300000       0.998500
      678.400000       0.999400
      678.500000       0.999900
      678.600000       0.999980
      678.700000       0.999650
      678.800000       0.998910
      678.900000       0.997760
      679.000000       0.996200
      679.100000       0.994230
      679.200000       0.991860
      679.300000       0.989080
      679.400000       0.985910
      679.500000       0.982340
      679.600000       0.978380
      679.700000       0.974030
      679.800000       0.969310
      679.900000       0.964210
      680.000000       0.958740
      680.100000       0.952910
      680.200000       0.946730
      680.300000       0.940190
      680.400000       0.933320
      680.500000       0.926120
      680.600000       0.918590
      680.700000       0.910750
      680.800000       0.902610
      680.900000       0.894170
      681.000000       0.885440
      681.100000       0.876440
      681.200000       0.867170
      681.300000       0.857640
      681.400000       0.847870
      681.500000       0.837870
      681.600000       0.827640
      681.700000       0.817210
      681.800000       0.806570
      681.900000       0.795740
      682.000000       0.784730
      682.100000       0.773560
      682.200000       0.762230
      682.300000       0.750760
      682.400000       0.739150
      682.500000       0.727430
      682.600000       0.715590
      682.700000       0.703660
      682.800000       0.691650
      682.900000       0.679550
      683.000000       0.667400
      683.100000       0.655190
      683.200000       0.642940
      683.300000       0.630660
      683.400000       0.618360
      683.500000       0.606050
      683.600000       0.593740
      683.700000       0.581440
      683.800000       0.569160
      683.900000       0.556900
      684.000000       0.544690
      684.100000       0.532530
      684.200000       0.520420
      684.300000       0.508380
      684.400000       0.494540
      684.500000       0.476370
      684.600000       0.458250
      684.700000       0.440230
      684.800000       0.422330
      684.900000       0.404570
      685.000000       0.386980
      685.100000       0.369590
      685.200000       0.352400
      685.300000       0.335460
      685.400000       0.318770
      685.500000       0.302370
      685.600000       0.286260
      685.700000       0.270460
      685.800000       0.255000
      685.900000       0.239880
      686.000000       0.225120
      686.100000       0.210730
      686.200000       0.196730
      686.300000       0.183130
      686.400000       0.169920
      686.500000       0.157120
      686.600000       0.144750
      686.700000       0.132790
      686.800000       0.121260
      686.900000       0.110150
      687.000000       0.099730
      687.100000       0.094390
      687.200000       0.089280
      687.300000       0.084390
      687.400000       0.079720
      687.500000       0.075250
      687.600000       0.070990
      687.700000       0.066930
      687.800000       0.063060
      687.900000       0.059380
      688.000000       0.055870
      688.100000       0.052540
      688.200000       0.049370
      688.300000       0.046370
      688.400000       0.043520
      688.500000       0.040810
      688.600000       0.038260
      688.700000       0.035830
      688.800000       0.033540
      688.900000       0.031380
      689.000000       0.029340
      689.100000       0.027410
      689.200000       0.025590
      689.300000       0.023880
      689.400000       0.022260
      689.500000       0.020750
      689.600000       0.019320
      689.700000       0.017980
      689.800000       0.016720
      689.900000       0.015540
      690.000000       0.014440
      690.100000       0.013400
      690.200000       0.012430
      690.300000       0.011520
      690.400000       0.010670
      690.500000       0.009880
      690.600000       0.009140
      690.700000       0.008450
      690.800000       0.007810
      690.900000       0.007210
      691.000000       0.006660
      691.100000       0.006140
      691.200000       0.005660
      691.300000       0.005210
      691.400000       0.004800
      691.500000       0.004410
      691.600000       0.004060
      691.700000       0.003730
      691.800000       0.003420
      691.900000       0.003140
      692.000000       0.002880
      692.100000       0.002640
      692.200000       0.002410
      692.300000       0.002210
      692.400000       0.002020
      692.500000       0.001850
      692.600000       0.001690
      692.700000       0.001540
      692.800000       0.001400
      692.900000       0.001280
      693.000000       0.001170
      693.100000       0.001060
      693.200000       0.000970
