  12  ,noaa_17_hirs_12.flt
Number of data points:
96
Wavenumber (cm-1)   Filter response
     1484.000000       0.000000
     1485.000000       0.009872
     1486.000000       0.009353
     1487.000000       0.009545
     1488.000000       0.010918
     1489.000000       0.012601
     1490.000000       0.013468
     1491.000000       0.012741
     1492.000000       0.012885
     1493.000000       0.020286
     1494.000000       0.024373
     1495.000000       0.026040
     1496.000000       0.044644
     1497.000000       0.065173
     1498.000000       0.098886
     1499.000000       0.134470
     1500.000000       0.167760
     1501.000000       0.214990
     1502.000000       0.269580
     1503.000000       0.412020
     1504.000000       0.559000
     1505.000000       0.649020
     1506.000000       0.741400
     1507.000000       0.938020
     1508.000000       0.980250
     1509.000000       0.997850
     1510.000000       1.000000
     1511.000000       0.996540
     1512.000000       0.965420
     1513.000000       0.936210
     1514.000000       0.903180
     1515.000000       0.866470
     1516.000000       0.846620
     1517.000000       0.833990
     1518.000000       0.826850
     1519.000000       0.828260
     1520.000000       0.831170
     1521.000000       0.836540
     1522.000000       0.853880
     1523.000000       0.858860
     1524.000000       0.867120
     1525.000000       0.883760
     1526.000000       0.898090
     1527.000000       0.907070
     1528.000000       0.916420
     1529.000000       0.919090
     1530.000000       0.914230
     1531.000000       0.897770
     1532.000000       0.884070
     1533.000000       0.862410
     1534.000000       0.834420
     1535.000000       0.820150
     1536.000000       0.784060
     1537.000000       0.756880
     1538.000000       0.737520
     1539.000000       0.725570
     1540.000000       0.716740
     1541.000000       0.709050
     1542.000000       0.708010
     1543.000000       0.704730
     1544.000000       0.696800
     1545.000000       0.689210
     1546.000000       0.683740
     1547.000000       0.674200
     1548.000000       0.660740
     1549.000000       0.641580
     1550.000000       0.616230
     1551.000000       0.592090
     1552.000000       0.556670
     1553.000000       0.531250
     1554.000000       0.509310
     1555.000000       0.425900
     1556.000000       0.344400
     1557.000000       0.304020
     1558.000000       0.265530
     1559.000000       0.144240
     1560.000000       0.094510
     1561.000000       0.079439
     1562.000000       0.067737
     1563.000000       0.053826
     1564.000000       0.036549
     1565.000000       0.023497
     1566.000000       0.016742
     1567.000000       0.012434
     1568.000000       0.011092
     1569.000000       0.008081
     1570.000000       0.006440
     1571.000000       0.006290
     1572.000000       0.006260
     1573.000000       0.005294
     1574.000000       0.005169
     1575.000000       0.004897
     1576.000000       0.003988
     1577.000000       0.003951
     1578.000000       0.003605
     1579.000000       0.000000
