8, GOES-R 6.19um ABI SRF CWG processed version 3 March 10, 2016
Number of data points:
3298
Wavenumber (cm-1)   Filter response
     1468.700000       0.001050
     1468.800000       0.001264
     1468.900000       0.001400
     1469.000000       0.001473
     1469.100000       0.001521
     1469.200000       0.001543
     1469.300000       0.001559
     1469.400000       0.001572
     1469.500000       0.001581
     1469.600000       0.001583
     1469.700000       0.001584
     1469.800000       0.001582
     1469.900000       0.001576
     1470.000000       0.001570
     1470.100000       0.001564
     1470.200000       0.001561
     1470.300000       0.001560
     1470.400000       0.001560
     1470.500000       0.001567
     1470.600000       0.001577
     1470.700000       0.001594
     1470.800000       0.001614
     1470.900000       0.001638
     1471.000000       0.001664
     1471.100000       0.001692
     1471.200000       0.001720
     1471.300000       0.001747
     1471.400000       0.001772
     1471.500000       0.001793
     1471.600000       0.001812
     1471.700000       0.001826
     1471.800000       0.001836
     1471.900000       0.001841
     1472.000000       0.001840
     1472.100000       0.001840
     1472.200000       0.001837
     1472.300000       0.001832
     1472.400000       0.001829
     1472.500000       0.001827
     1472.600000       0.001827
     1472.700000       0.001832
     1472.800000       0.001839
     1472.900000       0.001851
     1473.000000       0.001867
     1473.100000       0.001888
     1473.200000       0.001911
     1473.300000       0.001937
     1473.400000       0.001964
     1473.500000       0.001992
     1473.600000       0.002019
     1473.700000       0.002043
     1473.800000       0.002066
     1473.900000       0.002085
     1474.000000       0.002101
     1474.100000       0.002114
     1474.200000       0.002123
     1474.300000       0.002131
     1474.400000       0.002136
     1474.500000       0.002141
     1474.600000       0.002146
     1474.700000       0.002152
     1474.800000       0.002161
     1474.900000       0.002172
     1475.000000       0.002188
     1475.100000       0.002208
     1475.200000       0.002231
     1475.300000       0.002258
     1475.400000       0.002287
     1475.500000       0.002319
     1475.600000       0.002351
     1475.700000       0.002384
     1475.800000       0.002415
     1475.900000       0.002443
     1476.000000       0.002467
     1476.100000       0.002485
     1476.200000       0.002500
     1476.300000       0.002508
     1476.400000       0.002514
     1476.500000       0.002514
     1476.600000       0.002511
     1476.700000       0.002508
     1476.800000       0.002502
     1476.900000       0.002498
     1477.000000       0.002497
     1477.100000       0.002497
     1477.200000       0.002502
     1477.300000       0.002515
     1477.400000       0.002532
     1477.500000       0.002557
     1477.600000       0.002586
     1477.700000       0.002621
     1477.800000       0.002659
     1477.900000       0.002701
     1478.000000       0.002743
     1478.100000       0.002785
     1478.200000       0.002826
     1478.300000       0.002863
     1478.400000       0.002899
     1478.500000       0.002928
     1478.600000       0.002954
     1478.700000       0.002973
     1478.800000       0.002989
     1478.900000       0.003001
     1479.000000       0.003010
     1479.100000       0.003019
     1479.200000       0.003026
     1479.300000       0.003035
     1479.400000       0.003047
     1479.500000       0.003061
     1479.600000       0.003080
     1479.700000       0.003103
     1479.800000       0.003131
     1479.900000       0.003163
     1480.000000       0.003198
     1480.100000       0.003238
     1480.200000       0.003279
     1480.300000       0.003321
     1480.400000       0.003362
     1480.500000       0.003402
     1480.600000       0.003441
     1480.700000       0.003475
     1480.800000       0.003507
     1480.900000       0.003534
     1481.000000       0.003558
     1481.100000       0.003580
     1481.200000       0.003599
     1481.300000       0.003618
     1481.400000       0.003636
     1481.500000       0.003655
     1481.600000       0.003678
     1481.700000       0.003704
     1481.800000       0.003736
     1481.900000       0.003771
     1482.000000       0.003814
     1482.100000       0.003860
     1482.200000       0.003911
     1482.300000       0.003966
     1482.400000       0.004024
     1482.500000       0.004083
     1482.600000       0.004142
     1482.700000       0.004200
     1482.800000       0.004255
     1482.900000       0.004306
     1483.000000       0.004353
     1483.100000       0.004393
     1483.200000       0.004428
     1483.300000       0.004458
     1483.400000       0.004483
     1483.500000       0.004506
     1483.600000       0.004527
     1483.700000       0.004547
     1483.800000       0.004569
     1483.900000       0.004592
     1484.000000       0.004620
     1484.100000       0.004651
     1484.200000       0.004689
     1484.300000       0.004732
     1484.400000       0.004780
     1484.500000       0.004835
     1484.600000       0.004895
     1484.700000       0.004958
     1484.800000       0.005023
     1484.900000       0.005090
     1485.000000       0.005156
     1485.100000       0.005219
     1485.200000       0.005281
     1485.300000       0.005338
     1485.400000       0.005393
     1485.500000       0.005443
     1485.600000       0.005489
     1485.700000       0.005533
     1485.800000       0.005574
     1485.900000       0.005615
     1486.000000       0.005656
     1486.100000       0.005699
     1486.200000       0.005746
     1486.300000       0.005796
     1486.400000       0.005852
     1486.500000       0.005913
     1486.600000       0.005979
     1486.700000       0.006051
     1486.800000       0.006128
     1486.900000       0.006209
     1487.000000       0.006292
     1487.100000       0.006377
     1487.200000       0.006462
     1487.300000       0.006544
     1487.400000       0.006626
     1487.500000       0.006702
     1487.600000       0.006774
     1487.700000       0.006841
     1487.800000       0.006903
     1487.900000       0.006962
     1488.000000       0.007017
     1488.100000       0.007072
     1488.200000       0.007127
     1488.300000       0.007183
     1488.400000       0.007244
     1488.500000       0.007308
     1488.600000       0.007378
     1488.700000       0.007455
     1488.800000       0.007538
     1488.900000       0.007631
     1489.000000       0.007731
     1489.100000       0.007840
     1489.200000       0.007952
     1489.300000       0.008070
     1489.400000       0.008189
     1489.500000       0.008308
     1489.600000       0.008426
     1489.700000       0.008540
     1489.800000       0.008650
     1489.900000       0.008756
     1490.000000       0.008856
     1490.100000       0.008952
     1490.200000       0.009040
     1490.300000       0.009126
     1490.400000       0.009208
     1490.500000       0.009288
     1490.600000       0.009370
     1490.700000       0.009453
     1490.800000       0.009541
     1490.900000       0.009635
     1491.000000       0.009734
     1491.100000       0.009842
     1491.200000       0.009956
     1491.300000       0.010080
     1491.400000       0.010207
     1491.500000       0.010342
     1491.600000       0.010480
     1491.700000       0.010621
     1491.800000       0.010764
     1491.900000       0.010909
     1492.000000       0.011056
     1492.100000       0.011203
     1492.200000       0.011347
     1492.300000       0.011489
     1492.400000       0.011625
     1492.500000       0.011757
     1492.600000       0.011889
     1492.700000       0.012020
     1492.800000       0.012154
     1492.900000       0.012292
     1493.000000       0.012435
     1493.100000       0.012590
     1493.200000       0.012750
     1493.300000       0.012924
     1493.400000       0.013110
     1493.500000       0.013310
     1493.600000       0.013518
     1493.700000       0.013735
     1493.800000       0.013960
     1493.900000       0.014187
     1494.000000       0.014416
     1494.100000       0.014644
     1494.200000       0.014868
     1494.300000       0.015088
     1494.400000       0.015301
     1494.500000       0.015509
     1494.600000       0.015711
     1494.700000       0.015908
     1494.800000       0.016105
     1494.900000       0.016301
     1495.000000       0.016500
     1495.100000       0.016707
     1495.200000       0.016920
     1495.300000       0.017148
     1495.400000       0.017386
     1495.500000       0.017637
     1495.600000       0.017907
     1495.700000       0.018189
     1495.800000       0.018484
     1495.900000       0.018784
     1496.000000       0.019094
     1496.100000       0.019407
     1496.200000       0.019720
     1496.300000       0.020033
     1496.400000       0.020340
     1496.500000       0.020642
     1496.600000       0.020939
     1496.700000       0.021229
     1496.800000       0.021515
     1496.900000       0.021795
     1497.000000       0.022072
     1497.100000       0.022347
     1497.200000       0.022623
     1497.300000       0.022910
     1497.400000       0.023205
     1497.500000       0.023514
     1497.600000       0.023838
     1497.700000       0.024170
     1497.800000       0.024520
     1497.900000       0.024879
     1498.000000       0.025253
     1498.100000       0.025634
     1498.200000       0.026021
     1498.300000       0.026413
     1498.400000       0.026807
     1498.500000       0.027203
     1498.600000       0.027597
     1498.700000       0.027990
     1498.800000       0.028382
     1498.900000       0.028772
     1499.000000       0.029163
     1499.100000       0.029556
     1499.200000       0.029952
     1499.300000       0.030357
     1499.400000       0.030769
     1499.500000       0.031193
     1499.600000       0.031632
     1499.700000       0.032083
     1499.800000       0.032562
     1499.900000       0.033057
     1500.000000       0.033584
     1500.100000       0.034126
     1500.200000       0.034685
     1500.300000       0.035262
     1500.400000       0.035850
     1500.500000       0.036450
     1500.600000       0.037055
     1500.700000       0.037666
     1500.800000       0.038280
     1500.900000       0.038894
     1501.000000       0.039510
     1501.100000       0.040129
     1501.200000       0.040752
     1501.300000       0.041382
     1501.400000       0.042023
     1501.500000       0.042673
     1501.600000       0.043345
     1501.700000       0.044028
     1501.800000       0.044732
     1501.900000       0.045451
     1502.000000       0.046190
     1502.100000       0.046953
     1502.200000       0.047737
     1502.300000       0.048539
     1502.400000       0.049350
     1502.500000       0.050180
     1502.600000       0.051017
     1502.700000       0.051865
     1502.800000       0.052720
     1502.900000       0.053562
     1503.000000       0.054383
     1503.100000       0.055192
     1503.200000       0.055977
     1503.300000       0.056761
     1503.400000       0.057552
     1503.500000       0.058348
     1503.600000       0.059164
     1503.700000       0.059995
     1503.800000       0.060846
     1503.900000       0.061720
     1504.000000       0.062615
     1504.100000       0.063549
     1504.200000       0.064505
     1504.300000       0.065530
     1504.400000       0.066609
     1504.500000       0.067729
     1504.600000       0.068878
     1504.700000       0.070047
     1504.800000       0.071243
     1504.900000       0.072451
     1505.000000       0.073686
     1505.100000       0.074922
     1505.200000       0.076129
     1505.300000       0.077322
     1505.400000       0.078530
     1505.500000       0.079750
     1505.600000       0.080988
     1505.700000       0.082250
     1505.800000       0.083529
     1505.900000       0.084847
     1506.000000       0.086177
     1506.100000       0.087510
     1506.200000       0.088849
     1506.300000       0.090226
     1506.400000       0.091643
     1506.500000       0.093079
     1506.600000       0.094557
     1506.700000       0.096075
     1506.800000       0.097698
     1506.900000       0.099366
     1507.000000       0.101077
     1507.100000       0.102823
     1507.200000       0.104587
     1507.300000       0.106375
     1507.400000       0.108162
     1507.500000       0.109935
     1507.600000       0.111711
     1507.700000       0.113518
     1507.800000       0.115341
     1507.900000       0.117188
     1508.000000       0.119058
     1508.100000       0.120949
     1508.200000       0.122862
     1508.300000       0.124808
     1508.400000       0.126830
     1508.500000       0.128893
     1508.600000       0.131063
     1508.700000       0.133307
     1508.800000       0.135634
     1508.900000       0.138015
     1509.000000       0.140457
     1509.100000       0.143004
     1509.200000       0.145591
     1509.300000       0.148247
     1509.400000       0.150935
     1509.500000       0.153647
     1509.600000       0.156379
     1509.700000       0.159126
     1509.800000       0.161894
     1509.900000       0.164675
     1510.000000       0.167475
     1510.100000       0.170300
     1510.200000       0.173205
     1510.300000       0.176156
     1510.400000       0.179192
     1510.500000       0.182313
     1510.600000       0.185513
     1510.700000       0.188841
     1510.800000       0.192225
     1510.900000       0.195719
     1511.000000       0.199289
     1511.100000       0.202932
     1511.200000       0.206616
     1511.300000       0.210326
     1511.400000       0.214076
     1511.500000       0.217788
     1511.600000       0.221396
     1511.700000       0.224981
     1511.800000       0.228567
     1511.900000       0.232150
     1512.000000       0.235745
     1512.100000       0.239346
     1512.200000       0.242965
     1512.300000       0.246598
     1512.400000       0.250265
     1512.500000       0.254037
     1512.600000       0.257860
     1512.700000       0.261786
     1512.800000       0.265797
     1512.900000       0.269931
     1513.000000       0.274217
     1513.100000       0.278573
     1513.200000       0.283120
     1513.300000       0.287755
     1513.400000       0.292538
     1513.500000       0.297405
     1513.600000       0.302327
     1513.700000       0.307310
     1513.800000       0.312281
     1513.900000       0.317230
     1514.000000       0.322155
     1514.100000       0.327019
     1514.200000       0.331847
     1514.300000       0.336631
     1514.400000       0.341391
     1514.500000       0.346150
     1514.600000       0.350915
     1514.700000       0.355691
     1514.800000       0.360480
     1514.900000       0.365297
     1515.000000       0.370216
     1515.100000       0.375194
     1515.200000       0.380264
     1515.300000       0.385453
     1515.400000       0.390736
     1515.500000       0.396139
     1515.600000       0.401617
     1515.700000       0.407276
     1515.800000       0.413017
     1515.900000       0.418863
     1516.000000       0.424794
     1516.100000       0.430788
     1516.200000       0.436862
     1516.300000       0.442961
     1516.400000       0.449101
     1516.500000       0.455268
     1516.600000       0.461476
     1516.700000       0.467714
     1516.800000       0.473942
     1516.900000       0.480170
     1517.000000       0.486400
     1517.100000       0.492632
     1517.200000       0.498869
     1517.300000       0.505131
     1517.400000       0.511405
     1517.500000       0.517692
     1517.600000       0.523990
     1517.700000       0.530283
     1517.800000       0.536571
     1517.900000       0.542852
     1518.000000       0.549116
     1518.100000       0.555370
     1518.200000       0.561606
     1518.300000       0.567826
     1518.400000       0.574032
     1518.500000       0.580196
     1518.600000       0.586359
     1518.700000       0.592536
     1518.800000       0.598708
     1518.900000       0.604888
     1519.000000       0.611073
     1519.100000       0.617271
     1519.200000       0.623484
     1519.300000       0.629708
     1519.400000       0.635956
     1519.500000       0.642220
     1519.600000       0.648482
     1519.700000       0.654732
     1519.800000       0.661076
     1519.900000       0.667484
     1520.000000       0.673914
     1520.100000       0.680387
     1520.200000       0.686873
     1520.300000       0.693371
     1520.400000       0.699875
     1520.500000       0.706373
     1520.600000       0.712867
     1520.700000       0.719333
     1520.800000       0.725756
     1520.900000       0.732144
     1521.000000       0.738452
     1521.100000       0.744729
     1521.200000       0.750941
     1521.300000       0.757097
     1521.400000       0.763196
     1521.500000       0.769217
     1521.600000       0.775217
     1521.700000       0.781157
     1521.800000       0.787068
     1521.900000       0.792931
     1522.000000       0.798726
     1522.100000       0.804474
     1522.200000       0.810173
     1522.300000       0.815842
     1522.400000       0.821446
     1522.500000       0.827016
     1522.600000       0.832527
     1522.700000       0.837990
     1522.800000       0.843380
     1522.900000       0.848679
     1523.000000       0.853922
     1523.100000       0.859054
     1523.200000       0.864083
     1523.300000       0.869060
     1523.400000       0.873869
     1523.500000       0.877747
     1523.600000       0.880646
     1523.700000       0.883500
     1523.800000       0.886519
     1523.900000       0.889585
     1524.000000       0.892806
     1524.100000       0.896107
     1524.200000       0.899348
     1524.300000       0.902536
     1524.400000       0.905707
     1524.500000       0.908859
     1524.600000       0.911990
     1524.700000       0.915057
     1524.800000       0.918085
     1524.900000       0.921062
     1525.000000       0.923985
     1525.100000       0.926854
     1525.200000       0.929620
     1525.300000       0.932340
     1525.400000       0.934946
     1525.500000       0.937464
     1525.600000       0.939899
     1525.700000       0.942248
     1525.800000       0.944533
     1525.900000       0.946690
     1526.000000       0.948794
     1526.100000       0.950834
     1526.200000       0.952829
     1526.300000       0.954744
     1526.400000       0.956548
     1526.500000       0.958322
     1526.600000       0.960075
     1526.700000       0.961813
     1526.800000       0.963518
     1526.900000       0.965204
     1527.000000       0.966891
     1527.100000       0.968576
     1527.200000       0.970257
     1527.300000       0.971927
     1527.400000       0.973572
     1527.500000       0.975156
     1527.600000       0.976708
     1527.700000       0.978213
     1527.800000       0.979640
     1527.900000       0.981040
     1528.000000       0.982394
     1528.100000       0.983698
     1528.200000       0.984877
     1528.300000       0.985994
     1528.400000       0.987069
     1528.500000       0.988090
     1528.600000       0.988982
     1528.700000       0.989732
     1528.800000       0.990454
     1528.900000       0.991184
     1529.000000       0.991906
     1529.100000       0.992557
     1529.200000       0.993151
     1529.300000       0.993753
     1529.400000       0.994381
     1529.500000       0.994998
     1529.600000       0.995547
     1529.700000       0.996066
     1529.800000       0.996578
     1529.900000       0.997073
     1530.000000       0.997483
     1530.100000       0.997806
     1530.200000       0.998076
     1530.300000       0.998245
     1530.400000       0.998380
     1530.500000       0.998425
     1530.600000       0.998413
     1530.700000       0.998379
     1530.800000       0.998185
     1530.900000       0.997906
     1531.000000       0.997589
     1531.100000       0.997230
     1531.200000       0.996836
     1531.300000       0.996401
     1531.400000       0.995976
     1531.500000       0.995587
     1531.600000       0.995211
     1531.700000       0.994826
     1531.800000       0.994424
     1531.900000       0.994121
     1532.000000       0.993896
     1532.100000       0.993688
     1532.200000       0.993509
     1532.300000       0.993342
     1532.400000       0.993199
     1532.500000       0.993068
     1532.600000       0.992934
     1532.700000       0.992764
     1532.800000       0.992601
     1532.900000       0.992468
     1533.000000       0.992327
     1533.100000       0.992168
     1533.200000       0.991995
     1533.300000       0.991821
     1533.400000       0.991646
     1533.500000       0.991478
     1533.600000       0.991325
     1533.700000       0.991180
     1533.800000       0.991068
     1533.900000       0.990976
     1534.000000       0.990904
     1534.100000       0.990889
     1534.200000       0.990881
     1534.300000       0.990878
     1534.400000       0.990877
     1534.500000       0.990892
     1534.600000       0.990926
     1534.700000       0.990939
     1534.800000       0.990920
     1534.900000       0.990891
     1535.000000       0.990757
     1535.100000       0.990491
     1535.200000       0.990156
     1535.300000       0.989751
     1535.400000       0.989285
     1535.500000       0.988586
     1535.600000       0.987795
     1535.700000       0.986985
     1535.800000       0.986117
     1535.900000       0.985203
     1536.000000       0.984222
     1536.100000       0.983229
     1536.200000       0.982267
     1536.300000       0.981316
     1536.400000       0.980352
     1536.500000       0.979399
     1536.600000       0.978461
     1536.700000       0.977532
     1536.800000       0.976646
     1536.900000       0.975892
     1537.000000       0.975162
     1537.100000       0.974481
     1537.200000       0.973836
     1537.300000       0.973230
     1537.400000       0.972734
     1537.500000       0.972261
     1537.600000       0.971806
     1537.700000       0.971356
     1537.800000       0.970872
     1537.900000       0.970351
     1538.000000       0.969825
     1538.100000       0.969310
     1538.200000       0.968785
     1538.300000       0.968201
     1538.400000       0.967579
     1538.500000       0.966959
     1538.600000       0.966339
     1538.700000       0.965727
     1538.800000       0.965137
     1538.900000       0.964577
     1539.000000       0.964062
     1539.100000       0.963580
     1539.200000       0.963161
     1539.300000       0.962815
     1539.400000       0.962511
     1539.500000       0.962261
     1539.600000       0.962009
     1539.700000       0.961828
     1539.800000       0.961677
     1539.900000       0.961564
     1540.000000       0.961506
     1540.100000       0.961453
     1540.200000       0.961374
     1540.300000       0.961281
     1540.400000       0.961168
     1540.500000       0.961032
     1540.600000       0.960864
     1540.700000       0.960606
     1540.800000       0.960307
     1540.900000       0.959964
     1541.000000       0.959591
     1541.100000       0.959203
     1541.200000       0.958791
     1541.300000       0.958364
     1541.400000       0.957917
     1541.500000       0.957463
     1541.600000       0.957022
     1541.700000       0.956592
     1541.800000       0.956175
     1541.900000       0.955765
     1542.000000       0.955372
     1542.100000       0.955027
     1542.200000       0.954707
     1542.300000       0.954448
     1542.400000       0.954235
     1542.500000       0.954046
     1542.600000       0.953873
     1542.700000       0.953734
     1542.800000       0.953660
     1542.900000       0.953604
     1543.000000       0.953540
     1543.100000       0.953465
     1543.200000       0.953386
     1543.300000       0.953297
     1543.400000       0.953201
     1543.500000       0.953074
     1543.600000       0.952931
     1543.700000       0.952767
     1543.800000       0.952562
     1543.900000       0.952347
     1544.000000       0.952109
     1544.100000       0.951848
     1544.200000       0.951582
     1544.300000       0.951304
     1544.400000       0.951027
     1544.500000       0.950718
     1544.600000       0.950410
     1544.700000       0.950158
     1544.800000       0.949916
     1544.900000       0.949690
     1545.000000       0.949476
     1545.100000       0.949264
     1545.200000       0.949070
     1545.300000       0.948892
     1545.400000       0.948727
     1545.500000       0.948585
     1545.600000       0.948454
     1545.700000       0.948339
     1545.800000       0.948223
     1545.900000       0.948112
     1546.000000       0.948007
     1546.100000       0.947907
     1546.200000       0.947831
     1546.300000       0.947758
     1546.400000       0.947682
     1546.500000       0.947619
     1546.600000       0.947599
     1546.700000       0.947612
     1546.800000       0.947636
     1546.900000       0.947683
     1547.000000       0.947748
     1547.100000       0.947904
     1547.200000       0.948172
     1547.300000       0.948467
     1547.400000       0.948773
     1547.500000       0.949121
     1547.600000       0.949622
     1547.700000       0.950189
     1547.800000       0.950819
     1547.900000       0.951524
     1548.000000       0.952230
     1548.100000       0.952944
     1548.200000       0.953664
     1548.300000       0.954431
     1548.400000       0.955229
     1548.500000       0.955978
     1548.600000       0.956696
     1548.700000       0.957385
     1548.800000       0.957989
     1548.900000       0.958564
     1549.000000       0.959129
     1549.100000       0.959691
     1549.200000       0.960178
     1549.300000       0.960541
     1549.400000       0.960880
     1549.500000       0.961212
     1549.600000       0.961534
     1549.700000       0.961829
     1549.800000       0.962089
     1549.900000       0.962345
     1550.000000       0.962612
     1550.100000       0.962882
     1550.200000       0.963162
     1550.300000       0.963449
     1550.400000       0.963738
     1550.500000       0.964017
     1550.600000       0.964311
     1550.700000       0.964670
     1550.800000       0.965052
     1550.900000       0.965457
     1551.000000       0.965894
     1551.100000       0.966349
     1551.200000       0.966814
     1551.300000       0.967284
     1551.400000       0.967810
     1551.500000       0.968371
     1551.600000       0.968962
     1551.700000       0.969627
     1551.800000       0.970318
     1551.900000       0.971017
     1552.000000       0.971728
     1552.100000       0.972484
     1552.200000       0.973326
     1552.300000       0.974180
     1552.400000       0.975051
     1552.500000       0.975947
     1552.600000       0.976851
     1552.700000       0.977755
     1552.800000       0.978695
     1552.900000       0.979700
     1553.000000       0.980699
     1553.100000       0.981597
     1553.200000       0.982430
     1553.300000       0.983222
     1553.400000       0.983999
     1553.500000       0.984731
     1553.600000       0.985327
     1553.700000       0.985870
     1553.800000       0.986310
     1553.900000       0.986659
     1554.000000       0.986972
     1554.100000       0.987239
     1554.200000       0.987477
     1554.300000       0.987620
     1554.400000       0.987718
     1554.500000       0.987814
     1554.600000       0.987915
     1554.700000       0.987989
     1554.800000       0.988025
     1554.900000       0.988056
     1555.000000       0.988081
     1555.100000       0.988107
     1555.200000       0.988133
     1555.300000       0.988156
     1555.400000       0.988176
     1555.500000       0.988192
     1555.600000       0.988204
     1555.700000       0.988208
     1555.800000       0.988200
     1555.900000       0.988182
     1556.000000       0.988157
     1556.100000       0.988127
     1556.200000       0.988084
     1556.300000       0.988024
     1556.400000       0.987960
     1556.500000       0.987912
     1556.600000       0.987881
     1556.700000       0.987869
     1556.800000       0.987894
     1556.900000       0.987930
     1557.000000       0.987993
     1557.100000       0.988081
     1557.200000       0.988264
     1557.300000       0.988538
     1557.400000       0.988828
     1557.500000       0.989086
     1557.600000       0.989359
     1557.700000       0.989780
     1557.800000       0.990301
     1557.900000       0.990830
     1558.000000       0.991367
     1558.100000       0.991911
     1558.200000       0.992443
     1558.300000       0.992962
     1558.400000       0.993464
     1558.500000       0.993954
     1558.600000       0.994408
     1558.700000       0.994767
     1558.800000       0.995093
     1558.900000       0.995376
     1559.000000       0.995626
     1559.100000       0.995848
     1559.200000       0.996003
     1559.300000       0.996073
     1559.400000       0.996082
     1559.500000       0.996068
     1559.600000       0.996044
     1559.700000       0.996003
     1559.800000       0.995960
     1559.900000       0.995920
     1560.000000       0.995880
     1560.100000       0.995829
     1560.200000       0.995756
     1560.300000       0.995666
     1560.400000       0.995539
     1560.500000       0.995394
     1560.600000       0.995218
     1560.700000       0.995011
     1560.800000       0.994791
     1560.900000       0.994556
     1561.000000       0.994307
     1561.100000       0.993997
     1561.200000       0.993627
     1561.300000       0.993277
     1561.400000       0.992950
     1561.500000       0.992626
     1561.600000       0.992307
     1561.700000       0.991993
     1561.800000       0.991690
     1561.900000       0.991404
     1562.000000       0.991130
     1562.100000       0.990895
     1562.200000       0.990684
     1562.300000       0.990486
     1562.400000       0.990315
     1562.500000       0.990161
     1562.600000       0.990050
     1562.700000       0.989965
     1562.800000       0.989950
     1562.900000       0.990002
     1563.000000       0.990058
     1563.100000       0.990118
     1563.200000       0.990181
     1563.300000       0.990236
     1563.400000       0.990294
     1563.500000       0.990364
     1563.600000       0.990479
     1563.700000       0.990525
     1563.800000       0.990412
     1563.900000       0.990300
     1564.000000       0.990195
     1564.100000       0.990033
     1564.200000       0.989840
     1564.300000       0.989540
     1564.400000       0.989151
     1564.500000       0.988764
     1564.600000       0.988364
     1564.700000       0.987958
     1564.800000       0.987540
     1564.900000       0.987120
     1565.000000       0.986731
     1565.100000       0.986362
     1565.200000       0.986023
     1565.300000       0.985740
     1565.400000       0.985478
     1565.500000       0.985252
     1565.600000       0.985052
     1565.700000       0.984868
     1565.800000       0.984714
     1565.900000       0.984570
     1566.000000       0.984438
     1566.100000       0.984319
     1566.200000       0.984194
     1566.300000       0.984049
     1566.400000       0.983902
     1566.500000       0.983735
     1566.600000       0.983544
     1566.700000       0.983356
     1566.800000       0.983140
     1566.900000       0.982918
     1567.000000       0.982697
     1567.100000       0.982481
     1567.200000       0.982313
     1567.300000       0.982176
     1567.400000       0.982055
     1567.500000       0.981925
     1567.600000       0.981817
     1567.700000       0.981827
     1567.800000       0.981916
     1567.900000       0.982046
     1568.000000       0.982267
     1568.100000       0.982553
     1568.200000       0.982923
     1568.300000       0.983358
     1568.400000       0.983836
     1568.500000       0.984383
     1568.600000       0.984950
     1568.700000       0.985478
     1568.800000       0.985976
     1568.900000       0.986497
     1569.000000       0.987042
     1569.100000       0.987569
     1569.200000       0.988036
     1569.300000       0.988470
     1569.400000       0.988832
     1569.500000       0.989133
     1569.600000       0.989370
     1569.700000       0.989496
     1569.800000       0.989582
     1569.900000       0.989561
     1570.000000       0.989429
     1570.100000       0.989270
     1570.200000       0.989008
     1570.300000       0.988690
     1570.400000       0.988403
     1570.500000       0.988089
     1570.600000       0.987746
     1570.700000       0.987420
     1570.800000       0.987100
     1570.900000       0.986796
     1571.000000       0.986500
     1571.100000       0.986235
     1571.200000       0.986013
     1571.300000       0.985817
     1571.400000       0.985684
     1571.500000       0.985571
     1571.600000       0.985472
     1571.700000       0.985373
     1571.800000       0.985262
     1571.900000       0.985142
     1572.000000       0.985032
     1572.100000       0.984898
     1572.200000       0.984715
     1572.300000       0.984526
     1572.400000       0.984372
     1572.500000       0.984240
     1572.600000       0.984091
     1572.700000       0.983942
     1572.800000       0.983841
     1572.900000       0.983849
     1573.000000       0.983921
     1573.100000       0.984024
     1573.200000       0.984185
     1573.300000       0.984382
     1573.400000       0.984669
     1573.500000       0.985015
     1573.600000       0.985404
     1573.700000       0.985822
     1573.800000       0.986242
     1573.900000       0.986650
     1574.000000       0.987052
     1574.100000       0.987436
     1574.200000       0.987803
     1574.300000       0.988150
     1574.400000       0.988452
     1574.500000       0.988735
     1574.600000       0.988983
     1574.700000       0.989195
     1574.800000       0.989376
     1574.900000       0.989559
     1575.000000       0.989755
     1575.100000       0.989956
     1575.200000       0.990150
     1575.300000       0.990349
     1575.400000       0.990559
     1575.500000       0.990787
     1575.600000       0.991065
     1575.700000       0.991383
     1575.800000       0.991749
     1575.900000       0.992229
     1576.000000       0.992741
     1576.100000       0.993280
     1576.200000       0.993851
     1576.300000       0.994392
     1576.400000       0.994857
     1576.500000       0.995296
     1576.600000       0.995692
     1576.700000       0.996056
     1576.800000       0.996372
     1576.900000       0.996599
     1577.000000       0.996748
     1577.100000       0.996824
     1577.200000       0.996845
     1577.300000       0.996817
     1577.400000       0.996786
     1577.500000       0.996752
     1577.600000       0.996718
     1577.700000       0.996696
     1577.800000       0.996678
     1577.900000       0.996679
     1578.000000       0.996681
     1578.100000       0.996758
     1578.200000       0.996949
     1578.300000       0.997138
     1578.400000       0.997304
     1578.500000       0.997473
     1578.600000       0.997663
     1578.700000       0.997870
     1578.800000       0.998055
     1578.900000       0.998209
     1579.000000       0.998341
     1579.100000       0.998413
     1579.200000       0.998402
     1579.300000       0.998376
     1579.400000       0.998325
     1579.500000       0.998237
     1579.600000       0.998080
     1579.700000       0.997891
     1579.800000       0.997701
     1579.900000       0.997508
     1580.000000       0.997320
     1580.100000       0.997170
     1580.200000       0.997048
     1580.300000       0.996959
     1580.400000       0.996925
     1580.500000       0.996910
     1580.600000       0.996952
     1580.700000       0.997055
     1580.800000       0.997181
     1580.900000       0.997352
     1581.000000       0.997538
     1581.100000       0.997728
     1581.200000       0.997927
     1581.300000       0.998137
     1581.400000       0.998362
     1581.500000       0.998568
     1581.600000       0.998682
     1581.700000       0.998746
     1581.800000       0.998764
     1581.900000       0.998782
     1582.000000       0.998797
     1582.100000       0.998788
     1582.200000       0.998743
     1582.300000       0.998694
     1582.400000       0.998620
     1582.500000       0.998564
     1582.600000       0.998563
     1582.700000       0.998579
     1582.800000       0.998610
     1582.900000       0.998659
     1583.000000       0.998704
     1583.100000       0.998761
     1583.200000       0.998846
     1583.300000       0.998953
     1583.400000       0.999094
     1583.500000       0.999245
     1583.600000       0.999384
     1583.700000       0.999521
     1583.800000       0.999648
     1583.900000       0.999758
     1584.000000       0.999854
     1584.100000       0.999920
     1584.200000       0.999972
     1584.300000       0.999999
     1584.400000       0.999962
     1584.500000       0.999895
     1584.600000       0.999815
     1584.700000       0.999713
     1584.800000       0.999593
     1584.900000       0.999424
     1585.000000       0.999239
     1585.100000       0.999065
     1585.200000       0.998890
     1585.300000       0.998715
     1585.400000       0.998537
     1585.500000       0.998360
     1585.600000       0.998194
     1585.700000       0.998035
     1585.800000       0.997874
     1585.900000       0.997718
     1586.000000       0.997560
     1586.100000       0.997384
     1586.200000       0.997187
     1586.300000       0.996966
     1586.400000       0.996678
     1586.500000       0.996362
     1586.600000       0.996048
     1586.700000       0.995705
     1586.800000       0.995335
     1586.900000       0.994885
     1587.000000       0.994403
     1587.100000       0.993910
     1587.200000       0.993419
     1587.300000       0.992895
     1587.400000       0.992278
     1587.500000       0.991641
     1587.600000       0.991002
     1587.700000       0.990353
     1587.800000       0.989738
     1587.900000       0.989197
     1588.000000       0.988681
     1588.100000       0.988216
     1588.200000       0.987776
     1588.300000       0.987372
     1588.400000       0.987057
     1588.500000       0.986784
     1588.600000       0.986544
     1588.700000       0.986330
     1588.800000       0.986126
     1588.900000       0.985929
     1589.000000       0.985736
     1589.100000       0.985534
     1589.200000       0.985303
     1589.300000       0.985058
     1589.400000       0.984773
     1589.500000       0.984460
     1589.600000       0.984124
     1589.700000       0.983714
     1589.800000       0.983298
     1589.900000       0.982934
     1590.000000       0.982579
     1590.100000       0.982223
     1590.200000       0.981863
     1590.300000       0.981515
     1590.400000       0.981226
     1590.500000       0.980967
     1590.600000       0.980744
     1590.700000       0.980574
     1590.800000       0.980413
     1590.900000       0.980312
     1591.000000       0.980231
     1591.100000       0.980169
     1591.200000       0.980131
     1591.300000       0.980095
     1591.400000       0.980046
     1591.500000       0.979968
     1591.600000       0.979882
     1591.700000       0.979772
     1591.800000       0.979644
     1591.900000       0.979485
     1592.000000       0.979272
     1592.100000       0.979038
     1592.200000       0.978760
     1592.300000       0.978460
     1592.400000       0.978142
     1592.500000       0.977805
     1592.600000       0.977459
     1592.700000       0.977093
     1592.800000       0.976719
     1592.900000       0.976344
     1593.000000       0.975976
     1593.100000       0.975618
     1593.200000       0.975293
     1593.300000       0.974981
     1593.400000       0.974670
     1593.500000       0.974356
     1593.600000       0.974051
     1593.700000       0.973779
     1593.800000       0.973523
     1593.900000       0.973263
     1594.000000       0.972995
     1594.100000       0.972724
     1594.200000       0.972451
     1594.300000       0.972176
     1594.400000       0.971896
     1594.500000       0.971603
     1594.600000       0.971299
     1594.700000       0.970979
     1594.800000       0.970643
     1594.900000       0.970293
     1595.000000       0.969910
     1595.100000       0.969514
     1595.200000       0.969108
     1595.300000       0.968690
     1595.400000       0.968268
     1595.500000       0.967848
     1595.600000       0.967428
     1595.700000       0.967008
     1595.800000       0.966560
     1595.900000       0.966123
     1596.000000       0.965734
     1596.100000       0.965352
     1596.200000       0.964978
     1596.300000       0.964613
     1596.400000       0.964252
     1596.500000       0.963893
     1596.600000       0.963538
     1596.700000       0.963177
     1596.800000       0.962777
     1596.900000       0.962360
     1597.000000       0.961935
     1597.100000       0.961500
     1597.200000       0.961050
     1597.300000       0.960560
     1597.400000       0.960056
     1597.500000       0.959543
     1597.600000       0.959015
     1597.700000       0.958493
     1597.800000       0.957994
     1597.900000       0.957503
     1598.000000       0.957017
     1598.100000       0.956537
     1598.200000       0.956068
     1598.300000       0.955631
     1598.400000       0.955206
     1598.500000       0.954795
     1598.600000       0.954402
     1598.700000       0.954005
     1598.800000       0.953589
     1598.900000       0.953159
     1599.000000       0.952703
     1599.100000       0.952222
     1599.200000       0.951726
     1599.300000       0.951192
     1599.400000       0.950630
     1599.500000       0.950048
     1599.600000       0.949422
     1599.700000       0.948786
     1599.800000       0.948150
     1599.900000       0.947519
     1600.000000       0.946893
     1600.100000       0.946273
     1600.200000       0.945662
     1600.300000       0.945096
     1600.400000       0.944568
     1600.500000       0.944075
     1600.600000       0.943648
     1600.700000       0.943251
     1600.800000       0.942923
     1600.900000       0.942655
     1601.000000       0.942426
     1601.100000       0.942276
     1601.200000       0.942164
     1601.300000       0.942058
     1601.400000       0.941952
     1601.500000       0.941843
     1601.600000       0.941721
     1601.700000       0.941586
     1601.800000       0.941441
     1601.900000       0.941272
     1602.000000       0.941088
     1602.100000       0.940881
     1602.200000       0.940651
     1602.300000       0.940416
     1602.400000       0.940176
     1602.500000       0.939936
     1602.600000       0.939706
     1602.700000       0.939490
     1602.800000       0.939281
     1602.900000       0.939078
     1603.000000       0.938879
     1603.100000       0.938719
     1603.200000       0.938609
     1603.300000       0.938501
     1603.400000       0.938376
     1603.500000       0.938248
     1603.600000       0.938123
     1603.700000       0.938007
     1603.800000       0.937890
     1603.900000       0.937764
     1604.000000       0.937627
     1604.100000       0.937482
     1604.200000       0.937306
     1604.300000       0.937106
     1604.400000       0.936894
     1604.500000       0.936678
     1604.600000       0.936462
     1604.700000       0.936249
     1604.800000       0.936036
     1604.900000       0.935828
     1605.000000       0.935622
     1605.100000       0.935427
     1605.200000       0.935269
     1605.300000       0.935134
     1605.400000       0.935009
     1605.500000       0.934905
     1605.600000       0.934817
     1605.700000       0.934764
     1605.800000       0.934726
     1605.900000       0.934705
     1606.000000       0.934700
     1606.100000       0.934693
     1606.200000       0.934697
     1606.300000       0.934782
     1606.400000       0.934907
     1606.500000       0.935032
     1606.600000       0.935178
     1606.700000       0.935342
     1606.800000       0.935546
     1606.900000       0.935768
     1607.000000       0.936015
     1607.100000       0.936293
     1607.200000       0.936551
     1607.300000       0.936743
     1607.400000       0.936919
     1607.500000       0.937092
     1607.600000       0.937270
     1607.700000       0.937388
     1607.800000       0.937378
     1607.900000       0.937345
     1608.000000       0.937288
     1608.100000       0.937028
     1608.200000       0.936683
     1608.300000       0.936362
     1608.400000       0.936027
     1608.500000       0.935649
     1608.600000       0.935115
     1608.700000       0.934536
     1608.800000       0.933976
     1608.900000       0.933432
     1609.000000       0.932903
     1609.100000       0.932413
     1609.200000       0.931939
     1609.300000       0.931474
     1609.400000       0.931011
     1609.500000       0.930579
     1609.600000       0.930240
     1609.700000       0.929946
     1609.800000       0.929665
     1609.900000       0.929406
     1610.000000       0.929189
     1610.100000       0.929023
     1610.200000       0.928885
     1610.300000       0.928765
     1610.400000       0.928679
     1610.500000       0.928600
     1610.600000       0.928532
     1610.700000       0.928489
     1610.800000       0.928456
     1610.900000       0.928445
     1611.000000       0.928448
     1611.100000       0.928470
     1611.200000       0.928518
     1611.300000       0.928578
     1611.400000       0.928651
     1611.500000       0.928739
     1611.600000       0.928833
     1611.700000       0.928937
     1611.800000       0.929045
     1611.900000       0.929153
     1612.000000       0.929261
     1612.100000       0.929367
     1612.200000       0.929475
     1612.300000       0.929595
     1612.400000       0.929731
     1612.500000       0.929893
     1612.600000       0.930070
     1612.700000       0.930285
     1612.800000       0.930539
     1612.900000       0.930805
     1613.000000       0.931087
     1613.100000       0.931379
     1613.200000       0.931698
     1613.300000       0.932071
     1613.400000       0.932462
     1613.500000       0.932865
     1613.600000       0.933277
     1613.700000       0.933681
     1613.800000       0.934068
     1613.900000       0.934445
     1614.000000       0.934799
     1614.100000       0.935154
     1614.200000       0.935512
     1614.300000       0.935863
     1614.400000       0.936195
     1614.500000       0.936489
     1614.600000       0.936752
     1614.700000       0.937006
     1614.800000       0.937248
     1614.900000       0.937482
     1615.000000       0.937695
     1615.100000       0.937837
     1615.200000       0.937958
     1615.300000       0.938086
     1615.400000       0.938205
     1615.500000       0.938328
     1615.600000       0.938455
     1615.700000       0.938581
     1615.800000       0.938699
     1615.900000       0.938836
     1616.000000       0.938970
     1616.100000       0.939132
     1616.200000       0.939330
     1616.300000       0.939541
     1616.400000       0.939753
     1616.500000       0.939967
     1616.600000       0.940205
     1616.700000       0.940458
     1616.800000       0.940731
     1616.900000       0.941052
     1617.000000       0.941388
     1617.100000       0.941731
     1617.200000       0.942087
     1617.300000       0.942446
     1617.400000       0.942806
     1617.500000       0.943168
     1617.600000       0.943529
     1617.700000       0.943885
     1617.800000       0.944239
     1617.900000       0.944576
     1618.000000       0.944871
     1618.100000       0.945112
     1618.200000       0.945230
     1618.300000       0.945298
     1618.400000       0.945325
     1618.500000       0.945309
     1618.600000       0.945269
     1618.700000       0.945158
     1618.800000       0.944948
     1618.900000       0.944715
     1619.000000       0.944483
     1619.100000       0.944253
     1619.200000       0.944032
     1619.300000       0.943825
     1619.400000       0.943635
     1619.500000       0.943490
     1619.600000       0.943374
     1619.700000       0.943313
     1619.800000       0.943337
     1619.900000       0.943397
     1620.000000       0.943476
     1620.100000       0.943576
     1620.200000       0.943685
     1620.300000       0.943812
     1620.400000       0.943952
     1620.500000       0.944102
     1620.600000       0.944274
     1620.700000       0.944455
     1620.800000       0.944641
     1620.900000       0.944835
     1621.000000       0.945034
     1621.100000       0.945241
     1621.200000       0.945456
     1621.300000       0.945688
     1621.400000       0.945947
     1621.500000       0.946220
     1621.600000       0.946515
     1621.700000       0.946832
     1621.800000       0.947194
     1621.900000       0.947646
     1622.000000       0.948143
     1622.100000       0.948687
     1622.200000       0.949289
     1622.300000       0.949934
     1622.400000       0.950609
     1622.500000       0.951303
     1622.600000       0.952013
     1622.700000       0.952746
     1622.800000       0.953487
     1622.900000       0.954240
     1623.000000       0.955000
     1623.100000       0.955760
     1623.200000       0.956506
     1623.300000       0.957243
     1623.400000       0.957990
     1623.500000       0.958750
     1623.600000       0.959513
     1623.700000       0.960302
     1623.800000       0.961139
     1623.900000       0.962002
     1624.000000       0.962909
     1624.100000       0.963842
     1624.200000       0.964846
     1624.300000       0.965967
     1624.400000       0.967113
     1624.500000       0.968231
     1624.600000       0.969336
     1624.700000       0.970426
     1624.800000       0.971488
     1624.900000       0.972530
     1625.000000       0.973499
     1625.100000       0.974381
     1625.200000       0.975194
     1625.300000       0.975844
     1625.400000       0.976352
     1625.500000       0.976781
     1625.600000       0.977113
     1625.700000       0.977368
     1625.800000       0.977385
     1625.900000       0.977228
     1626.000000       0.977005
     1626.100000       0.976697
     1626.200000       0.976340
     1626.300000       0.975953
     1626.400000       0.975499
     1626.500000       0.975020
     1626.600000       0.974538
     1626.700000       0.974059
     1626.800000       0.973609
     1626.900000       0.973235
     1627.000000       0.972877
     1627.100000       0.972555
     1627.200000       0.972323
     1627.300000       0.972139
     1627.400000       0.972047
     1627.500000       0.972025
     1627.600000       0.972056
     1627.700000       0.972129
     1627.800000       0.972221
     1627.900000       0.972327
     1628.000000       0.972486
     1628.100000       0.972653
     1628.200000       0.972785
     1628.300000       0.972913
     1628.400000       0.973036
     1628.500000       0.973146
     1628.600000       0.973251
     1628.700000       0.973347
     1628.800000       0.973431
     1628.900000       0.973514
     1629.000000       0.973608
     1629.100000       0.973718
     1629.200000       0.973833
     1629.300000       0.973954
     1629.400000       0.974080
     1629.500000       0.974234
     1629.600000       0.974446
     1629.700000       0.974688
     1629.800000       0.974958
     1629.900000       0.975240
     1630.000000       0.975545
     1630.100000       0.975894
     1630.200000       0.976256
     1630.300000       0.976616
     1630.400000       0.976949
     1630.500000       0.977278
     1630.600000       0.977616
     1630.700000       0.977940
     1630.800000       0.978220
     1630.900000       0.978431
     1631.000000       0.978611
     1631.100000       0.978733
     1631.200000       0.978786
     1631.300000       0.978778
     1631.400000       0.978693
     1631.500000       0.978523
     1631.600000       0.978321
     1631.700000       0.978074
     1631.800000       0.977805
     1631.900000       0.977512
     1632.000000       0.977203
     1632.100000       0.976890
     1632.200000       0.976585
     1632.300000       0.976299
     1632.400000       0.976022
     1632.500000       0.975774
     1632.600000       0.975544
     1632.700000       0.975345
     1632.800000       0.975183
     1632.900000       0.975046
     1633.000000       0.974968
     1633.100000       0.974919
     1633.200000       0.974908
     1633.300000       0.974972
     1633.400000       0.975066
     1633.500000       0.975179
     1633.600000       0.975322
     1633.700000       0.975483
     1633.800000       0.975670
     1633.900000       0.975878
     1634.000000       0.976118
     1634.100000       0.976452
     1634.200000       0.976850
     1634.300000       0.977266
     1634.400000       0.977687
     1634.500000       0.978116
     1634.600000       0.978574
     1634.700000       0.979047
     1634.800000       0.979514
     1634.900000       0.979993
     1635.000000       0.980446
     1635.100000       0.980774
     1635.200000       0.981013
     1635.300000       0.981237
     1635.400000       0.981458
     1635.500000       0.981693
     1635.600000       0.981889
     1635.700000       0.982032
     1635.800000       0.982116
     1635.900000       0.982186
     1636.000000       0.982242
     1636.100000       0.982295
     1636.200000       0.982344
     1636.300000       0.982381
     1636.400000       0.982408
     1636.500000       0.982421
     1636.600000       0.982433
     1636.700000       0.982459
     1636.800000       0.982499
     1636.900000       0.982545
     1637.000000       0.982604
     1637.100000       0.982668
     1637.200000       0.982734
     1637.300000       0.982840
     1637.400000       0.982972
     1637.500000       0.983129
     1637.600000       0.983322
     1637.700000       0.983521
     1637.800000       0.983705
     1637.900000       0.983874
     1638.000000       0.984032
     1638.100000       0.984165
     1638.200000       0.984289
     1638.300000       0.984390
     1638.400000       0.984463
     1638.500000       0.984511
     1638.600000       0.984512
     1638.700000       0.984478
     1638.800000       0.984444
     1638.900000       0.984420
     1639.000000       0.984390
     1639.100000       0.984357
     1639.200000       0.984339
     1639.300000       0.984330
     1639.400000       0.984418
     1639.500000       0.984593
     1639.600000       0.984794
     1639.700000       0.985094
     1639.800000       0.985463
     1639.900000       0.985876
     1640.000000       0.986383
     1640.100000       0.986936
     1640.200000       0.987566
     1640.300000       0.988364
     1640.400000       0.989234
     1640.500000       0.990101
     1640.600000       0.990970
     1640.700000       0.991817
     1640.800000       0.992672
     1640.900000       0.993526
     1641.000000       0.994284
     1641.100000       0.994944
     1641.200000       0.995487
     1641.300000       0.995725
     1641.400000       0.995857
     1641.500000       0.995899
     1641.600000       0.995667
     1641.700000       0.995395
     1641.800000       0.995025
     1641.900000       0.994247
     1642.000000       0.993279
     1642.100000       0.992241
     1642.200000       0.991059
     1642.300000       0.989816
     1642.400000       0.988448
     1642.500000       0.987001
     1642.600000       0.985496
     1642.700000       0.983959
     1642.800000       0.982417
     1642.900000       0.980893
     1643.000000       0.979347
     1643.100000       0.977765
     1643.200000       0.976140
     1643.300000       0.974493
     1643.400000       0.972851
     1643.500000       0.971232
     1643.600000       0.969624
     1643.700000       0.968035
     1643.800000       0.966468
     1643.900000       0.964938
     1644.000000       0.963514
     1644.100000       0.962159
     1644.200000       0.960848
     1644.300000       0.959617
     1644.400000       0.958443
     1644.500000       0.957432
     1644.600000       0.956607
     1644.700000       0.955879
     1644.800000       0.955303
     1644.900000       0.954810
     1645.000000       0.954373
     1645.100000       0.954017
     1645.200000       0.953702
     1645.300000       0.953409
     1645.400000       0.953137
     1645.500000       0.952870
     1645.600000       0.952591
     1645.700000       0.952302
     1645.800000       0.952007
     1645.900000       0.951701
     1646.000000       0.951385
     1646.100000       0.951060
     1646.200000       0.950712
     1646.300000       0.950353
     1646.400000       0.949978
     1646.500000       0.949575
     1646.600000       0.949173
     1646.700000       0.948792
     1646.800000       0.948441
     1646.900000       0.948133
     1647.000000       0.947929
     1647.100000       0.947783
     1647.200000       0.947691
     1647.300000       0.947658
     1647.400000       0.947695
     1647.500000       0.947814
     1647.600000       0.947996
     1647.700000       0.948197
     1647.800000       0.948407
     1647.900000       0.948625
     1648.000000       0.948845
     1648.100000       0.949066
     1648.200000       0.949281
     1648.300000       0.949460
     1648.400000       0.949574
     1648.500000       0.949672
     1648.600000       0.949755
     1648.700000       0.949810
     1648.800000       0.949859
     1648.900000       0.949948
     1649.000000       0.950059
     1649.100000       0.950191
     1649.200000       0.950357
     1649.300000       0.950558
     1649.400000       0.950796
     1649.500000       0.951061
     1649.600000       0.951395
     1649.700000       0.951786
     1649.800000       0.952222
     1649.900000       0.952653
     1650.000000       0.953066
     1650.100000       0.953465
     1650.200000       0.953805
     1650.300000       0.954082
     1650.400000       0.954311
     1650.500000       0.954417
     1650.600000       0.954449
     1650.700000       0.954414
     1650.800000       0.954230
     1650.900000       0.953902
     1651.000000       0.953560
     1651.100000       0.953210
     1651.200000       0.952833
     1651.300000       0.952375
     1651.400000       0.951793
     1651.500000       0.951180
     1651.600000       0.950543
     1651.700000       0.949901
     1651.800000       0.949263
     1651.900000       0.948650
     1652.000000       0.948051
     1652.100000       0.947488
     1652.200000       0.946965
     1652.300000       0.946476
     1652.400000       0.946066
     1652.500000       0.945709
     1652.600000       0.945402
     1652.700000       0.945174
     1652.800000       0.944966
     1652.900000       0.944799
     1653.000000       0.944676
     1653.100000       0.944553
     1653.200000       0.944443
     1653.300000       0.944375
     1653.400000       0.944312
     1653.500000       0.944217
     1653.600000       0.944114
     1653.700000       0.944005
     1653.800000       0.943874
     1653.900000       0.943729
     1654.000000       0.943579
     1654.100000       0.943416
     1654.200000       0.943249
     1654.300000       0.943067
     1654.400000       0.942824
     1654.500000       0.942622
     1654.600000       0.942578
     1654.700000       0.942574
     1654.800000       0.942573
     1654.900000       0.942621
     1655.000000       0.942680
     1655.100000       0.942803
     1655.200000       0.943118
     1655.300000       0.943504
     1655.400000       0.943924
     1655.500000       0.944405
     1655.600000       0.944907
     1655.700000       0.945420
     1655.800000       0.945943
     1655.900000       0.946471
     1656.000000       0.947011
     1656.100000       0.947552
     1656.200000       0.948047
     1656.300000       0.948514
     1656.400000       0.948940
     1656.500000       0.949251
     1656.600000       0.949513
     1656.700000       0.949770
     1656.800000       0.950030
     1656.900000       0.950292
     1657.000000       0.950529
     1657.100000       0.950645
     1657.200000       0.950725
     1657.300000       0.950805
     1657.400000       0.950883
     1657.500000       0.950953
     1657.600000       0.951003
     1657.700000       0.951035
     1657.800000       0.951052
     1657.900000       0.951034
     1658.000000       0.950982
     1658.100000       0.950914
     1658.200000       0.950803
     1658.300000       0.950649
     1658.400000       0.950438
     1658.500000       0.950177
     1658.600000       0.949891
     1658.700000       0.949564
     1658.800000       0.949189
     1658.900000       0.948791
     1659.000000       0.948355
     1659.100000       0.947891
     1659.200000       0.947413
     1659.300000       0.946902
     1659.400000       0.946378
     1659.500000       0.945852
     1659.600000       0.945316
     1659.700000       0.944784
     1659.800000       0.944280
     1659.900000       0.943798
     1660.000000       0.943329
     1660.100000       0.942880
     1660.200000       0.942440
     1660.300000       0.942038
     1660.400000       0.941645
     1660.500000       0.941193
     1660.600000       0.940643
     1660.700000       0.940044
     1660.800000       0.939414
     1660.900000       0.938768
     1661.000000       0.938133
     1661.100000       0.937500
     1661.200000       0.936845
     1661.300000       0.936178
     1661.400000       0.935538
     1661.500000       0.934979
     1661.600000       0.934451
     1661.700000       0.933972
     1661.800000       0.933588
     1661.900000       0.933247
     1662.000000       0.932981
     1662.100000       0.932804
     1662.200000       0.932694
     1662.300000       0.932648
     1662.400000       0.932609
     1662.500000       0.932576
     1662.600000       0.932515
     1662.700000       0.932418
     1662.800000       0.932312
     1662.900000       0.932111
     1663.000000       0.931868
     1663.100000       0.931637
     1663.200000       0.931393
     1663.300000       0.931126
     1663.400000       0.930799
     1663.500000       0.930402
     1663.600000       0.929989
     1663.700000       0.929573
     1663.800000       0.929148
     1663.900000       0.928707
     1664.000000       0.928217
     1664.100000       0.927716
     1664.200000       0.927242
     1664.300000       0.926816
     1664.400000       0.926416
     1664.500000       0.926074
     1664.600000       0.925794
     1664.700000       0.925536
     1664.800000       0.925308
     1664.900000       0.925114
     1665.000000       0.924962
     1665.100000       0.924853
     1665.200000       0.924753
     1665.300000       0.924665
     1665.400000       0.924562
     1665.500000       0.924455
     1665.600000       0.924373
     1665.700000       0.924297
     1665.800000       0.924208
     1665.900000       0.924081
     1666.000000       0.923920
     1666.100000       0.923732
     1666.200000       0.923504
     1666.300000       0.923263
     1666.400000       0.923012
     1666.500000       0.922714
     1666.600000       0.922395
     1666.700000       0.922083
     1666.800000       0.921758
     1666.900000       0.921421
     1667.000000       0.921079
     1667.100000       0.920729
     1667.200000       0.920384
     1667.300000       0.920058
     1667.400000       0.919740
     1667.500000       0.919421
     1667.600000       0.919092
     1667.700000       0.918764
     1667.800000       0.918455
     1667.900000       0.918180
     1668.000000       0.917908
     1668.100000       0.917617
     1668.200000       0.917302
     1668.300000       0.916970
     1668.400000       0.916609
     1668.500000       0.916225
     1668.600000       0.915831
     1668.700000       0.915420
     1668.800000       0.915001
     1668.900000       0.914581
     1669.000000       0.914162
     1669.100000       0.913746
     1669.200000       0.913341
     1669.300000       0.912956
     1669.400000       0.912603
     1669.500000       0.912291
     1669.600000       0.912003
     1669.700000       0.911754
     1669.800000       0.911591
     1669.900000       0.911469
     1670.000000       0.911402
     1670.100000       0.911418
     1670.200000       0.911471
     1670.300000       0.911549
     1670.400000       0.911732
     1670.500000       0.911938
     1670.600000       0.912071
     1670.700000       0.912159
     1670.800000       0.912243
     1670.900000       0.912297
     1671.000000       0.912316
     1671.100000       0.912323
     1671.200000       0.912168
     1671.300000       0.911772
     1671.400000       0.911327
     1671.500000       0.910775
     1671.600000       0.910098
     1671.700000       0.909380
     1671.800000       0.908567
     1671.900000       0.907692
     1672.000000       0.906783
     1672.100000       0.905861
     1672.200000       0.904933
     1672.300000       0.904000
     1672.400000       0.903072
     1672.500000       0.902155
     1672.600000       0.901259
     1672.700000       0.900375
     1672.800000       0.899523
     1672.900000       0.898733
     1673.000000       0.897973
     1673.100000       0.897312
     1673.200000       0.896791
     1673.300000       0.896305
     1673.400000       0.895824
     1673.500000       0.895338
     1673.600000       0.894882
     1673.700000       0.894528
     1673.800000       0.894247
     1673.900000       0.893988
     1674.000000       0.893718
     1674.100000       0.893451
     1674.200000       0.893196
     1674.300000       0.892976
     1674.400000       0.892766
     1674.500000       0.892549
     1674.600000       0.892295
     1674.700000       0.892031
     1674.800000       0.891786
     1674.900000       0.891545
     1675.000000       0.891299
     1675.100000       0.891038
     1675.200000       0.890763
     1675.300000       0.890480
     1675.400000       0.890179
     1675.500000       0.889865
     1675.600000       0.889541
     1675.700000       0.889190
     1675.800000       0.888825
     1675.900000       0.888449
     1676.000000       0.888042
     1676.100000       0.887621
     1676.200000       0.887183
     1676.300000       0.886691
     1676.400000       0.886176
     1676.500000       0.885672
     1676.600000       0.885160
     1676.700000       0.884641
     1676.800000       0.884113
     1676.900000       0.883577
     1677.000000       0.883046
     1677.100000       0.882534
     1677.200000       0.882028
     1677.300000       0.881529
     1677.400000       0.881029
     1677.500000       0.880540
     1677.600000       0.880105
     1677.700000       0.879738
     1677.800000       0.879386
     1677.900000       0.879045
     1678.000000       0.878715
     1678.100000       0.878396
     1678.200000       0.878099
     1678.300000       0.877814
     1678.400000       0.877533
     1678.500000       0.877265
     1678.600000       0.877002
     1678.700000       0.876734
     1678.800000       0.876444
     1678.900000       0.876145
     1679.000000       0.875844
     1679.100000       0.875533
     1679.200000       0.875224
     1679.300000       0.874932
     1679.400000       0.874654
     1679.500000       0.874390
     1679.600000       0.874160
     1679.700000       0.873940
     1679.800000       0.873763
     1679.900000       0.873678
     1680.000000       0.873609
     1680.100000       0.873551
     1680.200000       0.873621
     1680.300000       0.873787
     1680.400000       0.874017
     1680.500000       0.874290
     1680.600000       0.874583
     1680.700000       0.874919
     1680.800000       0.875388
     1680.900000       0.875909
     1681.000000       0.876394
     1681.100000       0.876848
     1681.200000       0.877289
     1681.300000       0.877712
     1681.400000       0.878128
     1681.500000       0.878495
     1681.600000       0.878734
     1681.700000       0.878935
     1681.800000       0.879026
     1681.900000       0.878978
     1682.000000       0.878914
     1682.100000       0.878832
     1682.200000       0.878609
     1682.300000       0.878293
     1682.400000       0.877953
     1682.500000       0.877534
     1682.600000       0.877072
     1682.700000       0.876596
     1682.800000       0.876119
     1682.900000       0.875649
     1683.000000       0.875205
     1683.100000       0.874789
     1683.200000       0.874396
     1683.300000       0.874028
     1683.400000       0.873692
     1683.500000       0.873465
     1683.600000       0.873441
     1683.700000       0.873431
     1683.800000       0.873445
     1683.900000       0.873567
     1684.000000       0.873715
     1684.100000       0.873915
     1684.200000       0.874337
     1684.300000       0.874863
     1684.400000       0.875353
     1684.500000       0.875795
     1684.600000       0.876264
     1684.700000       0.876880
     1684.800000       0.877629
     1684.900000       0.878430
     1685.000000       0.879216
     1685.100000       0.879997
     1685.200000       0.880773
     1685.300000       0.881551
     1685.400000       0.882332
     1685.500000       0.883113
     1685.600000       0.883910
     1685.700000       0.884701
     1685.800000       0.885434
     1685.900000       0.886109
     1686.000000       0.886743
     1686.100000       0.887280
     1686.200000       0.887767
     1686.300000       0.888174
     1686.400000       0.888412
     1686.500000       0.888602
     1686.600000       0.888779
     1686.700000       0.888791
     1686.800000       0.888686
     1686.900000       0.888549
     1687.000000       0.888355
     1687.100000       0.888117
     1687.200000       0.887849
     1687.300000       0.887495
     1687.400000       0.887123
     1687.500000       0.886834
     1687.600000       0.886623
     1687.700000       0.886442
     1687.800000       0.886356
     1687.900000       0.886320
     1688.000000       0.886296
     1688.100000       0.886314
     1688.200000       0.886474
     1688.300000       0.886693
     1688.400000       0.886924
     1688.500000       0.887200
     1688.600000       0.887491
     1688.700000       0.887792
     1688.800000       0.888105
     1688.900000       0.888422
     1689.000000       0.888745
     1689.100000       0.889074
     1689.200000       0.889407
     1689.300000       0.889712
     1689.400000       0.889997
     1689.500000       0.890252
     1689.600000       0.890463
     1689.700000       0.890662
     1689.800000       0.890861
     1689.900000       0.891058
     1690.000000       0.891260
     1690.100000       0.891489
     1690.200000       0.891751
     1690.300000       0.892022
     1690.400000       0.892296
     1690.500000       0.892579
     1690.600000       0.892878
     1690.700000       0.893228
     1690.800000       0.893611
     1690.900000       0.893999
     1691.000000       0.894400
     1691.100000       0.894808
     1691.200000       0.895197
     1691.300000       0.895510
     1691.400000       0.895789
     1691.500000       0.896044
     1691.600000       0.896291
     1691.700000       0.896519
     1691.800000       0.896683
     1691.900000       0.896789
     1692.000000       0.896887
     1692.100000       0.896974
     1692.200000       0.897041
     1692.300000       0.897106
     1692.400000       0.897184
     1692.500000       0.897269
     1692.600000       0.897364
     1692.700000       0.897493
     1692.800000       0.897645
     1692.900000       0.897826
     1693.000000       0.898091
     1693.100000       0.898386
     1693.200000       0.898706
     1693.300000       0.899071
     1693.400000       0.899456
     1693.500000       0.899854
     1693.600000       0.900300
     1693.700000       0.900769
     1693.800000       0.901257
     1693.900000       0.901774
     1694.000000       0.902305
     1694.100000       0.902858
     1694.200000       0.903441
     1694.300000       0.904036
     1694.400000       0.904640
     1694.500000       0.905246
     1694.600000       0.905868
     1694.700000       0.906550
     1694.800000       0.907276
     1694.900000       0.908010
     1695.000000       0.908717
     1695.100000       0.909406
     1695.200000       0.910111
     1695.300000       0.910889
     1695.400000       0.911682
     1695.500000       0.912480
     1695.600000       0.913286
     1695.700000       0.914096
     1695.800000       0.914902
     1695.900000       0.915705
     1696.000000       0.916505
     1696.100000       0.917301
     1696.200000       0.918097
     1696.300000       0.918888
     1696.400000       0.919666
     1696.500000       0.920426
     1696.600000       0.921175
     1696.700000       0.921910
     1696.800000       0.922636
     1696.900000       0.923363
     1697.000000       0.924118
     1697.100000       0.924902
     1697.200000       0.925706
     1697.300000       0.926547
     1697.400000       0.927408
     1697.500000       0.928286
     1697.600000       0.929204
     1697.700000       0.930137
     1697.800000       0.931087
     1697.900000       0.932075
     1698.000000       0.933098
     1698.100000       0.934135
     1698.200000       0.935170
     1698.300000       0.936204
     1698.400000       0.937234
     1698.500000       0.938261
     1698.600000       0.939275
     1698.700000       0.940247
     1698.800000       0.941158
     1698.900000       0.942032
     1699.000000       0.942875
     1699.100000       0.943696
     1699.200000       0.944503
     1699.300000       0.945278
     1699.400000       0.946031
     1699.500000       0.946771
     1699.600000       0.947481
     1699.700000       0.948173
     1699.800000       0.948863
     1699.900000       0.949559
     1700.000000       0.950257
     1700.100000       0.950958
     1700.200000       0.951683
     1700.300000       0.952432
     1700.400000       0.953196
     1700.500000       0.953987
     1700.600000       0.954793
     1700.700000       0.955625
     1700.800000       0.956515
     1700.900000       0.957443
     1701.000000       0.958389
     1701.100000       0.959366
     1701.200000       0.960348
     1701.300000       0.961297
     1701.400000       0.962208
     1701.500000       0.963110
     1701.600000       0.964024
     1701.700000       0.964959
     1701.800000       0.965843
     1701.900000       0.966551
     1702.000000       0.967152
     1702.100000       0.967725
     1702.200000       0.968268
     1702.300000       0.968756
     1702.400000       0.969159
     1702.500000       0.969465
     1702.600000       0.969722
     1702.700000       0.969927
     1702.800000       0.969962
     1702.900000       0.969974
     1703.000000       0.969972
     1703.100000       0.969773
     1703.200000       0.969525
     1703.300000       0.969214
     1703.400000       0.968814
     1703.500000       0.968388
     1703.600000       0.967941
     1703.700000       0.967446
     1703.800000       0.966930
     1703.900000       0.966406
     1704.000000       0.965839
     1704.100000       0.965272
     1704.200000       0.964763
     1704.300000       0.964302
     1704.400000       0.963866
     1704.500000       0.963471
     1704.600000       0.963135
     1704.700000       0.962857
     1704.800000       0.962627
     1704.900000       0.962428
     1705.000000       0.962250
     1705.100000       0.962109
     1705.200000       0.961991
     1705.300000       0.961874
     1705.400000       0.961747
     1705.500000       0.961611
     1705.600000       0.961454
     1705.700000       0.961263
     1705.800000       0.961066
     1705.900000       0.960842
     1706.000000       0.960505
     1706.100000       0.960111
     1706.200000       0.959687
     1706.300000       0.959193
     1706.400000       0.958658
     1706.500000       0.958063
     1706.600000       0.957338
     1706.700000       0.956576
     1706.800000       0.955773
     1706.900000       0.954930
     1707.000000       0.954068
     1707.100000       0.953157
     1707.200000       0.952179
     1707.300000       0.951155
     1707.400000       0.950030
     1707.500000       0.948758
     1707.600000       0.947434
     1707.700000       0.946092
     1707.800000       0.944672
     1707.900000       0.943181
     1708.000000       0.941480
     1708.100000       0.939575
     1708.200000       0.937603
     1708.300000       0.935600
     1708.400000       0.933553
     1708.500000       0.931433
     1708.600000       0.929017
     1708.700000       0.926427
     1708.800000       0.923796
     1708.900000       0.921152
     1709.000000       0.918444
     1709.100000       0.915673
     1709.200000       0.912726
     1709.300000       0.909696
     1709.400000       0.906622
     1709.500000       0.903452
     1709.600000       0.900236
     1709.700000       0.896966
     1709.800000       0.893571
     1709.900000       0.890123
     1710.000000       0.886614
     1710.100000       0.882988
     1710.200000       0.879326
     1710.300000       0.875605
     1710.400000       0.871779
     1710.500000       0.867908
     1710.600000       0.863968
     1710.700000       0.859946
     1710.800000       0.855861
     1710.900000       0.851620
     1711.000000       0.847168
     1711.100000       0.842616
     1711.200000       0.837876
     1711.300000       0.832940
     1711.400000       0.827982
     1711.500000       0.823035
     1711.600000       0.817910
     1711.700000       0.813196
     1711.800000       0.809815
     1711.900000       0.807175
     1712.000000       0.804782
     1712.100000       0.802694
     1712.200000       0.800847
     1712.300000       0.799078
     1712.400000       0.797357
     1712.500000       0.795644
     1712.600000       0.793966
     1712.700000       0.792387
     1712.800000       0.790861
     1712.900000       0.789353
     1713.000000       0.787864
     1713.100000       0.786389
     1713.200000       0.784944
     1713.300000       0.783575
     1713.400000       0.782261
     1713.500000       0.780986
     1713.600000       0.779768
     1713.700000       0.778572
     1713.800000       0.777400
     1713.900000       0.776275
     1714.000000       0.775170
     1714.100000       0.774099
     1714.200000       0.773100
     1714.300000       0.772123
     1714.400000       0.771161
     1714.500000       0.770221
     1714.600000       0.769301
     1714.700000       0.768391
     1714.800000       0.767493
     1714.900000       0.766602
     1715.000000       0.765724
     1715.100000       0.764863
     1715.200000       0.764010
     1715.300000       0.763170
     1715.400000       0.762344
     1715.500000       0.761531
     1715.600000       0.760747
     1715.700000       0.759979
     1715.800000       0.759222
     1715.900000       0.758487
     1716.000000       0.757774
     1716.100000       0.757075
     1716.200000       0.756400
     1716.300000       0.755765
     1716.400000       0.755149
     1716.500000       0.754572
     1716.600000       0.754027
     1716.700000       0.753499
     1716.800000       0.753004
     1716.900000       0.752529
     1717.000000       0.752066
     1717.100000       0.751626
     1717.200000       0.751200
     1717.300000       0.750781
     1717.400000       0.750370
     1717.500000       0.749962
     1717.600000       0.749553
     1717.700000       0.749135
     1717.800000       0.748691
     1717.900000       0.748227
     1718.000000       0.747723
     1718.100000       0.747196
     1718.200000       0.746650
     1718.300000       0.746089
     1718.400000       0.745522
     1718.500000       0.744943
     1718.600000       0.744325
     1718.700000       0.743687
     1718.800000       0.743029
     1718.900000       0.742323
     1719.000000       0.741582
     1719.100000       0.740793
     1719.200000       0.739935
     1719.300000       0.739047
     1719.400000       0.738122
     1719.500000       0.737107
     1719.600000       0.736051
     1719.700000       0.734956
     1719.800000       0.733776
     1719.900000       0.732550
     1720.000000       0.731256
     1720.100000       0.729886
     1720.200000       0.728488
     1720.300000       0.727050
     1720.400000       0.725542
     1720.500000       0.724001
     1720.600000       0.722420
     1720.700000       0.720787
     1720.800000       0.719125
     1720.900000       0.717396
     1721.000000       0.715572
     1721.100000       0.713711
     1721.200000       0.711810
     1721.300000       0.709806
     1721.400000       0.707748
     1721.500000       0.705630
     1721.600000       0.703437
     1721.700000       0.701206
     1721.800000       0.698918
     1721.900000       0.696544
     1722.000000       0.694146
     1722.100000       0.691707
     1722.200000       0.689180
     1722.300000       0.686605
     1722.400000       0.683965
     1722.500000       0.681255
     1722.600000       0.678504
     1722.700000       0.675678
     1722.800000       0.672770
     1722.900000       0.669815
     1723.000000       0.666778
     1723.100000       0.663654
     1723.200000       0.660481
     1723.300000       0.657219
     1723.400000       0.653863
     1723.500000       0.650446
     1723.600000       0.646886
     1723.700000       0.643244
     1723.800000       0.639557
     1723.900000       0.635782
     1724.000000       0.631911
     1724.100000       0.628000
     1724.200000       0.624028
     1724.300000       0.619997
     1724.400000       0.615920
     1724.500000       0.611792
     1724.600000       0.607632
     1724.700000       0.603457
     1724.800000       0.599253
     1724.900000       0.595028
     1725.000000       0.590794
     1725.100000       0.586548
     1725.200000       0.582292
     1725.300000       0.578030
     1725.400000       0.573758
     1725.500000       0.569478
     1725.600000       0.565195
     1725.700000       0.560900
     1725.800000       0.556593
     1725.900000       0.552278
     1726.000000       0.547943
     1726.100000       0.543597
     1726.200000       0.539240
     1726.300000       0.534862
     1726.400000       0.530471
     1726.500000       0.526068
     1726.600000       0.521637
     1726.700000       0.517191
     1726.800000       0.512726
     1726.900000       0.508218
     1727.000000       0.503686
     1727.100000       0.499130
     1727.200000       0.494517
     1727.300000       0.489873
     1727.400000       0.485206
     1727.500000       0.480488
     1727.600000       0.475742
     1727.700000       0.470977
     1727.800000       0.466163
     1727.900000       0.461326
     1728.000000       0.456472
     1728.100000       0.451573
     1728.200000       0.446661
     1728.300000       0.441745
     1728.400000       0.436824
     1728.500000       0.431899
     1728.600000       0.426983
     1728.700000       0.422099
     1728.800000       0.417242
     1728.900000       0.412409
     1729.000000       0.407622
     1729.100000       0.402856
     1729.200000       0.398114
     1729.300000       0.393428
     1729.400000       0.388767
     1729.500000       0.384136
     1729.600000       0.379577
     1729.700000       0.375050
     1729.800000       0.370552
     1729.900000       0.366117
     1730.000000       0.361711
     1730.100000       0.357330
     1730.200000       0.353013
     1730.300000       0.348748
     1730.400000       0.344525
     1730.500000       0.340370
     1730.600000       0.336244
     1730.700000       0.332149
     1730.800000       0.328131
     1730.900000       0.324154
     1731.000000       0.320234
     1731.100000       0.316392
     1731.200000       0.312578
     1731.300000       0.308798
     1731.400000       0.305105
     1731.500000       0.301445
     1731.600000       0.297816
     1731.700000       0.294262
     1731.800000       0.290733
     1731.900000       0.287229
     1732.000000       0.283786
     1732.100000       0.280367
     1732.200000       0.276973
     1732.300000       0.273643
     1732.400000       0.270337
     1732.500000       0.267049
     1732.600000       0.263799
     1732.700000       0.260558
     1732.800000       0.257320
     1732.900000       0.254091
     1733.000000       0.250865
     1733.100000       0.247640
     1733.200000       0.244416
     1733.300000       0.241192
     1733.400000       0.237966
     1733.500000       0.234732
     1733.600000       0.231497
     1733.700000       0.228264
     1733.800000       0.225037
     1733.900000       0.221814
     1734.000000       0.218603
     1734.100000       0.215426
     1734.200000       0.212262
     1734.300000       0.209124
     1734.400000       0.206050
     1734.500000       0.203004
     1734.600000       0.199985
     1734.700000       0.197039
     1734.800000       0.194145
     1734.900000       0.191298
     1735.000000       0.188521
     1735.100000       0.185774
     1735.200000       0.183050
     1735.300000       0.180387
     1735.400000       0.177773
     1735.500000       0.175196
     1735.600000       0.172679
     1735.700000       0.170186
     1735.800000       0.167718
     1735.900000       0.165307
     1736.000000       0.162923
     1736.100000       0.160565
     1736.200000       0.158271
     1736.300000       0.156008
     1736.400000       0.153772
     1736.500000       0.151597
     1736.600000       0.149452
     1736.700000       0.147329
     1736.800000       0.145260
     1736.900000       0.143220
     1737.000000       0.141206
     1737.100000       0.139246
     1737.200000       0.137303
     1737.300000       0.135386
     1737.400000       0.133540
     1737.500000       0.131731
     1737.600000       0.129949
     1737.700000       0.128194
     1737.800000       0.126449
     1737.900000       0.124717
     1738.000000       0.123017
     1738.100000       0.121337
     1738.200000       0.119668
     1738.300000       0.118020
     1738.400000       0.116388
     1738.500000       0.114769
     1738.600000       0.113174
     1738.700000       0.111595
     1738.800000       0.110032
     1738.900000       0.108510
     1739.000000       0.107013
     1739.100000       0.105529
     1739.200000       0.104064
     1739.300000       0.102627
     1739.400000       0.101211
     1739.500000       0.099832
     1739.600000       0.098475
     1739.700000       0.097136
     1739.800000       0.095837
     1739.900000       0.094567
     1740.000000       0.093314
     1740.100000       0.092091
     1740.200000       0.090894
     1740.300000       0.089710
     1740.400000       0.088549
     1740.500000       0.087409
     1740.600000       0.086280
     1740.700000       0.085166
     1740.800000       0.084067
     1740.900000       0.082976
     1741.000000       0.081899
     1741.100000       0.080834
     1741.200000       0.079778
     1741.300000       0.078740
     1741.400000       0.077720
     1741.500000       0.076710
     1741.600000       0.075717
     1741.700000       0.074732
     1741.800000       0.073754
     1741.900000       0.072785
     1742.000000       0.071838
     1742.100000       0.070900
     1742.200000       0.069975
     1742.300000       0.069054
     1742.400000       0.068153
     1742.500000       0.067317
     1742.600000       0.066558
     1742.700000       0.065821
     1742.800000       0.065089
     1742.900000       0.064369
     1743.000000       0.063657
     1743.100000       0.062952
     1743.200000       0.062260
     1743.300000       0.061572
     1743.400000       0.060891
     1743.500000       0.060218
     1743.600000       0.059550
     1743.700000       0.058886
     1743.800000       0.058236
     1743.900000       0.057595
     1744.000000       0.056964
     1744.100000       0.056356
     1744.200000       0.055759
     1744.300000       0.055170
     1744.400000       0.054587
     1744.500000       0.054008
     1744.600000       0.053432
     1744.700000       0.052863
     1744.800000       0.052298
     1744.900000       0.051738
     1745.000000       0.051189
     1745.100000       0.050645
     1745.200000       0.050108
     1745.300000       0.049586
     1745.400000       0.049070
     1745.500000       0.048560
     1745.600000       0.048057
     1745.700000       0.047559
     1745.800000       0.047076
     1745.900000       0.046638
     1746.000000       0.046217
     1746.100000       0.045804
     1746.200000       0.045388
     1746.300000       0.044972
     1746.400000       0.044559
     1746.500000       0.044152
     1746.600000       0.043748
     1746.700000       0.043346
     1746.800000       0.042950
     1746.900000       0.042558
     1747.000000       0.042168
     1747.100000       0.041779
     1747.200000       0.041391
     1747.300000       0.041005
     1747.400000       0.040625
     1747.500000       0.040248
     1747.600000       0.039875
     1747.700000       0.039514
     1747.800000       0.039161
     1747.900000       0.038814
     1748.000000       0.038480
     1748.100000       0.038158
     1748.200000       0.037842
     1748.300000       0.037539
     1748.400000       0.037247
     1748.500000       0.036959
     1748.600000       0.036680
     1748.700000       0.036408
     1748.800000       0.036137
     1748.900000       0.035867
     1749.000000       0.035599
     1749.100000       0.035332
     1749.200000       0.035067
     1749.300000       0.034802
     1749.400000       0.034539
     1749.500000       0.034278
     1749.600000       0.034021
     1749.700000       0.033765
     1749.800000       0.033511
     1749.900000       0.033257
     1750.000000       0.033005
     1750.100000       0.032756
     1750.200000       0.032512
     1750.300000       0.032271
     1750.400000       0.032030
     1750.500000       0.031788
     1750.600000       0.031547
     1750.700000       0.031308
     1750.800000       0.031075
     1750.900000       0.030845
     1751.000000       0.030615
     1751.100000       0.030384
     1751.200000       0.030153
     1751.300000       0.029923
     1751.400000       0.029694
     1751.500000       0.029465
     1751.600000       0.029241
     1751.700000       0.029028
     1751.800000       0.028822
     1751.900000       0.028620
     1752.000000       0.028429
     1752.100000       0.028244
     1752.200000       0.028061
     1752.300000       0.027878
     1752.400000       0.027697
     1752.500000       0.027516
     1752.600000       0.027338
     1752.700000       0.027161
     1752.800000       0.026985
     1752.900000       0.026809
     1753.000000       0.026635
     1753.100000       0.026461
     1753.200000       0.026288
     1753.300000       0.026117
     1753.400000       0.025946
     1753.500000       0.025777
     1753.600000       0.025609
     1753.700000       0.025441
     1753.800000       0.025275
     1753.900000       0.025111
     1754.000000       0.024948
     1754.100000       0.024785
     1754.200000       0.024621
     1754.300000       0.024459
     1754.400000       0.024297
     1754.500000       0.024138
     1754.600000       0.023980
     1754.700000       0.023822
     1754.800000       0.023665
     1754.900000       0.023509
     1755.000000       0.023354
     1755.100000       0.023200
     1755.200000       0.023047
     1755.300000       0.022895
     1755.400000       0.022744
     1755.500000       0.022593
     1755.600000       0.022443
     1755.700000       0.022294
     1755.800000       0.022145
     1755.900000       0.021996
     1756.000000       0.021849
     1756.100000       0.021702
     1756.200000       0.021556
     1756.300000       0.021408
     1756.400000       0.021260
     1756.500000       0.021112
     1756.600000       0.020965
     1756.700000       0.020818
     1756.800000       0.020670
     1756.900000       0.020523
     1757.000000       0.020376
     1757.100000       0.020229
     1757.200000       0.020084
     1757.300000       0.019943
     1757.400000       0.019798
     1757.500000       0.019647
     1757.600000       0.019487
     1757.700000       0.019321
     1757.800000       0.019148
     1757.900000       0.018959
     1758.000000       0.018763
     1758.100000       0.018560
     1758.200000       0.018340
     1758.300000       0.018113
     1758.400000       0.017893
     1758.500000       0.017689
     1758.600000       0.017488
     1758.700000       0.017290
     1758.800000       0.017099
     1758.900000       0.016911
     1759.000000       0.016723
     1759.100000       0.016538
     1759.200000       0.016353
     1759.300000       0.016169
     1759.400000       0.015985
     1759.500000       0.015801
     1759.600000       0.015618
     1759.700000       0.015438
     1759.800000       0.015260
     1759.900000       0.015083
     1760.000000       0.014913
     1760.100000       0.014746
     1760.200000       0.014583
     1760.300000       0.014426
     1760.400000       0.014276
     1760.500000       0.014129
     1760.600000       0.013986
     1760.700000       0.013850
     1760.800000       0.013716
     1760.900000       0.013583
     1761.000000       0.013451
     1761.100000       0.013320
     1761.200000       0.013189
     1761.300000       0.013057
     1761.400000       0.012926
     1761.500000       0.012794
     1761.600000       0.012661
     1761.700000       0.012528
     1761.800000       0.012396
     1761.900000       0.012266
     1762.000000       0.012137
     1762.100000       0.012009
     1762.200000       0.011886
     1762.300000       0.011765
     1762.400000       0.011646
     1762.500000       0.011532
     1762.600000       0.011422
     1762.700000       0.011314
     1762.800000       0.011210
     1762.900000       0.011108
     1763.000000       0.011008
     1763.100000       0.010909
     1763.200000       0.010812
     1763.300000       0.010715
     1763.400000       0.010616
     1763.500000       0.010518
     1763.600000       0.010418
     1763.700000       0.010318
     1763.800000       0.010215
     1763.900000       0.010113
     1764.000000       0.010010
     1764.100000       0.009907
     1764.200000       0.009804
     1764.300000       0.009704
     1764.400000       0.009610
     1764.500000       0.009518
     1764.600000       0.009428
     1764.700000       0.009346
     1764.800000       0.009266
     1764.900000       0.009189
     1765.000000       0.009116
     1765.100000       0.009046
     1765.200000       0.008977
     1765.300000       0.008911
     1765.400000       0.008846
     1765.500000       0.008783
     1765.600000       0.008720
     1765.700000       0.008657
     1765.800000       0.008595
     1765.900000       0.008531
     1766.000000       0.008467
     1766.100000       0.008403
     1766.200000       0.008338
     1766.300000       0.008272
     1766.400000       0.008206
     1766.500000       0.008141
     1766.600000       0.008075
     1766.700000       0.008011
     1766.800000       0.007947
     1766.900000       0.007886
     1767.000000       0.007826
     1767.100000       0.007768
     1767.200000       0.007714
     1767.300000       0.007661
     1767.400000       0.007610
     1767.500000       0.007562
     1767.600000       0.007515
     1767.700000       0.007469
     1767.800000       0.007424
     1767.900000       0.007380
     1768.000000       0.007336
     1768.100000       0.007292
     1768.200000       0.007247
     1768.300000       0.007202
     1768.400000       0.007156
     1768.500000       0.007109
     1768.600000       0.007063
     1768.700000       0.007016
     1768.800000       0.006969
     1768.900000       0.006923
     1769.000000       0.006878
     1769.100000       0.006835
     1769.200000       0.006793
     1769.300000       0.006753
     1769.400000       0.006716
     1769.500000       0.006680
     1769.600000       0.006645
     1769.700000       0.006615
     1769.800000       0.006585
     1769.900000       0.006557
     1770.000000       0.006530
     1770.100000       0.006504
     1770.200000       0.006477
     1770.300000       0.006450
     1770.400000       0.006423
     1770.500000       0.006396
     1770.600000       0.006366
     1770.700000       0.006335
     1770.800000       0.006302
     1770.900000       0.006267
     1771.000000       0.006230
     1771.100000       0.006192
     1771.200000       0.006154
     1771.300000       0.006115
     1771.400000       0.006075
     1771.500000       0.006036
     1771.600000       0.005998
     1771.700000       0.005960
     1771.800000       0.005924
     1771.900000       0.005890
     1772.000000       0.005857
     1772.100000       0.005824
     1772.200000       0.005795
     1772.300000       0.005766
     1772.400000       0.005738
     1772.500000       0.005710
     1772.600000       0.005684
     1772.700000       0.005657
     1772.800000       0.005630
     1772.900000       0.005603
     1773.000000       0.005575
     1773.100000       0.005545
     1773.200000       0.005514
     1773.300000       0.005482
     1773.400000       0.005450
     1773.500000       0.005417
     1773.600000       0.005383
     1773.700000       0.005349
     1773.800000       0.005316
     1773.900000       0.005283
     1774.000000       0.005251
     1774.100000       0.005221
     1774.200000       0.005192
     1774.300000       0.005164
     1774.400000       0.005137
     1774.500000       0.005112
     1774.600000       0.005087
     1774.700000       0.005064
     1774.800000       0.005041
     1774.900000       0.005019
     1775.000000       0.004996
     1775.100000       0.004974
     1775.200000       0.004951
     1775.300000       0.004927
     1775.400000       0.004902
     1775.500000       0.004876
     1775.600000       0.004849
     1775.700000       0.004821
     1775.800000       0.004793
     1775.900000       0.004764
     1776.000000       0.004735
     1776.100000       0.004706
     1776.200000       0.004678
     1776.300000       0.004652
     1776.400000       0.004625
     1776.500000       0.004601
     1776.600000       0.004578
     1776.700000       0.004557
     1776.800000       0.004538
     1776.900000       0.004521
     1777.000000       0.004505
     1777.100000       0.004490
     1777.200000       0.004477
     1777.300000       0.004464
     1777.400000       0.004452
     1777.500000       0.004440
     1777.600000       0.004427
     1777.700000       0.004415
     1777.800000       0.004401
     1777.900000       0.004387
     1778.000000       0.004372
     1778.100000       0.004358
     1778.200000       0.004342
     1778.300000       0.004326
     1778.400000       0.004310
     1778.500000       0.004294
     1778.600000       0.004278
     1778.700000       0.004263
     1778.800000       0.004250
     1778.900000       0.004236
     1779.000000       0.004224
     1779.100000       0.004212
     1779.200000       0.004201
     1779.300000       0.004191
     1779.400000       0.004180
     1779.500000       0.004170
     1779.600000       0.004159
     1779.700000       0.004148
     1779.800000       0.004135
     1779.900000       0.004121
     1780.000000       0.004106
     1780.100000       0.004088
     1780.200000       0.004069
     1780.300000       0.004049
     1780.400000       0.004028
     1780.500000       0.004004
     1780.600000       0.003981
     1780.700000       0.003957
     1780.800000       0.003932
     1780.900000       0.003908
     1781.000000       0.003885
     1781.100000       0.003862
     1781.200000       0.003841
     1781.300000       0.003821
     1781.400000       0.003803
     1781.500000       0.003787
     1781.600000       0.003772
     1781.700000       0.003759
     1781.800000       0.003747
     1781.900000       0.003735
     1782.000000       0.003724
     1782.100000       0.003713
     1782.200000       0.003702
     1782.300000       0.003690
     1782.400000       0.003677
     1782.500000       0.003664
     1782.600000       0.003648
     1782.700000       0.003631
     1782.800000       0.003613
     1782.900000       0.003593
     1783.000000       0.003572
     1783.100000       0.003549
     1783.200000       0.003527
     1783.300000       0.003503
     1783.400000       0.003480
     1783.500000       0.003456
     1783.600000       0.003433
     1783.700000       0.003411
     1783.800000       0.003389
     1783.900000       0.003369
     1784.000000       0.003349
     1784.100000       0.003330
     1784.200000       0.003311
     1784.300000       0.003293
     1784.400000       0.003275
     1784.500000       0.003256
     1784.600000       0.003238
     1784.700000       0.003219
     1784.800000       0.003200
     1784.900000       0.003179
     1785.000000       0.003158
     1785.100000       0.003136
     1785.200000       0.003113
     1785.300000       0.003090
     1785.400000       0.003067
     1785.500000       0.003045
     1785.600000       0.003022
     1785.700000       0.003000
     1785.800000       0.002979
     1785.900000       0.002958
     1786.000000       0.002939
     1786.100000       0.002922
     1786.200000       0.002906
     1786.300000       0.002890
     1786.400000       0.002876
     1786.500000       0.002862
     1786.600000       0.002849
     1786.700000       0.002836
     1786.800000       0.002822
     1786.900000       0.002808
     1787.000000       0.002794
     1787.100000       0.002778
     1787.200000       0.002761
     1787.300000       0.002743
     1787.400000       0.002723
     1787.500000       0.002701
     1787.600000       0.002680
     1787.700000       0.002657
     1787.800000       0.002633
     1787.900000       0.002610
     1788.000000       0.002586
     1788.100000       0.002563
     1788.200000       0.002540
     1788.300000       0.002519
     1788.400000       0.002499
     1788.500000       0.002480
     1788.600000       0.002461
     1788.700000       0.002445
     1788.800000       0.002430
     1788.900000       0.002415
     1789.000000       0.002402
     1789.100000       0.002389
     1789.200000       0.002375
     1789.300000       0.002362
     1789.400000       0.002348
     1789.500000       0.002334
     1789.600000       0.002318
     1789.700000       0.002302
     1789.800000       0.002285
     1789.900000       0.002267
     1790.000000       0.002248
     1790.100000       0.002229
     1790.200000       0.002209
     1790.300000       0.002189
     1790.400000       0.002169
     1790.500000       0.002150
     1790.600000       0.002132
     1790.700000       0.002114
     1790.800000       0.002097
     1790.900000       0.002082
     1791.000000       0.002068
     1791.100000       0.002054
     1791.200000       0.002042
     1791.300000       0.002031
     1791.400000       0.002020
     1791.500000       0.002009
     1791.600000       0.001998
     1791.700000       0.001987
     1791.800000       0.001975
     1791.900000       0.001962
     1792.000000       0.001949
     1792.100000       0.001934
     1792.200000       0.001919
     1792.300000       0.001901
     1792.400000       0.001884
     1792.500000       0.001866
     1792.600000       0.001846
     1792.700000       0.001826
     1792.800000       0.001806
     1792.900000       0.001786
     1793.000000       0.001766
     1793.100000       0.001747
     1793.200000       0.001729
     1793.300000       0.001711
     1793.400000       0.001694
     1793.500000       0.001679
     1793.600000       0.001663
     1793.700000       0.001649
     1793.800000       0.001634
     1793.900000       0.001621
     1794.000000       0.001607
     1794.100000       0.001593
     1794.200000       0.001579
     1794.300000       0.001565
     1794.400000       0.001551
     1794.500000       0.001536
     1794.600000       0.001521
     1794.700000       0.001505
     1794.800000       0.001490
     1794.900000       0.001474
     1795.000000       0.001459
     1795.100000       0.001445
     1795.200000       0.001431
     1795.300000       0.001418
     1795.400000       0.001405
     1795.500000       0.001394
     1795.600000       0.001383
     1795.700000       0.001373
     1795.800000       0.001364
     1795.900000       0.001355
     1796.000000       0.001346
     1796.100000       0.001337
     1796.200000       0.001328
     1796.300000       0.001319
     1796.400000       0.001308
     1796.500000       0.001296
     1796.600000       0.001284
     1796.700000       0.001271
     1796.800000       0.001256
     1796.900000       0.001241
     1797.000000       0.001224
     1797.100000       0.001207
     1797.200000       0.001189
     1797.300000       0.001172
     1797.400000       0.001155
     1797.500000       0.001138
     1797.600000       0.001121
     1797.700000       0.001106
     1797.800000       0.001092
     1797.900000       0.001079
     1798.000000       0.001070
     1798.100000       0.001062
     1798.200000       0.001052
     1798.300000       0.001021
     1798.400000       0.000943
