 1    ,noaa_19_avhrr_01.flt
Number of data points:
71
Wavenumber (cm-1)   Filter response
    14044.943800       0.000000
    14084.507000       0.000111
    14124.293800       0.000131
    14164.305900       0.000542
    14204.545500       0.000067
    14245.014200       0.000746
    14285.714300       0.001073
    14326.647600       0.002087
    14367.816100       0.004002
    14409.221900       0.006712
    14450.867100       0.012642
    14492.753600       0.022800
    14534.883700       0.041400
    14577.259500       0.076362
    14619.883000       0.138960
    14662.756600       0.250010
    14705.882400       0.428250
    14749.262500       0.665310
    14792.899400       0.871780
    14836.795300       0.959480
    14880.952400       0.957690
    14925.373100       0.938200
    14970.059900       0.931510
    15015.015000       0.939950
    15060.241000       0.955950
    15105.740200       0.975930
    15151.515200       0.989620
    15197.568400       0.996580
    15243.902400       1.000000
    15290.519900       0.997340
    15337.423300       0.992200
    15384.615400       0.984510
    15432.098800       0.971450
    15479.876200       0.954500
    15527.950300       0.930200
    15576.324000       0.899900
    15625.000000       0.872470
    15673.981200       0.865220
    15723.270400       0.830740
    15772.870700       0.819210
    15822.784800       0.816210
    15873.015900       0.818130
    15923.566900       0.822040
    15974.440900       0.826410
    16025.641000       0.825120
    16077.170400       0.816360
    16129.032300       0.802690
    16181.229800       0.782780
    16233.766200       0.764290
    16286.645000       0.744810
    16339.869300       0.727650
    16393.442600       0.713540
    16447.368400       0.701330
    16501.650200       0.692560
    16556.291400       0.684820
    16611.295700       0.669340
    16666.666700       0.641390
    16722.408000       0.608500
    16778.523500       0.570120
    16835.016800       0.536810
    16891.891900       0.519650
    16949.152500       0.514530
    17006.802700       0.455750
    17064.846400       0.286210
    17123.287700       0.122880
    17182.130600       0.042846
    17241.379300       0.013881
    17301.038100       0.003981
    17361.111100       0.001484
    17421.602800       0.000217
    17482.517500       0.000000
