   4   ,channel
Number of data points:
191
Wavenumber (cm-1)   Filter response
      722.000000       0.004427
      724.000000       0.003486
      726.000000       0.002916
      728.000000       0.002766
      730.000000       0.002790
      732.000000       0.003831
      734.000000       0.004278
      736.000000       0.004545
      738.000000       0.004482
      740.000000       0.003667
      742.000000       0.003786
      744.000000       0.005177
      746.000000       0.006021
      748.000000       0.007946
      750.000000       0.007702
      752.000000       0.006293
      754.000000       0.005927
      756.000000       0.005448
      758.000000       0.006475
      760.000000       0.008365
      762.000000       0.008857
      764.000000       0.009470
      766.000000       0.009591
      768.000000       0.009730
      770.000000       0.010781
      772.000000       0.011811
      774.000000       0.014308
      776.000000       0.016382
      778.000000       0.022355
      780.000000       0.026396
      782.000000       0.032273
      784.000000       0.035670
      786.000000       0.040510
      788.000000       0.043887
      790.000000       0.055338
      792.000000       0.061345
      794.000000       0.074436
      796.000000       0.079113
      798.000000       0.084679
      800.000000       0.086350
      802.000000       0.088251
      804.000000       0.088552
      806.000000       0.088578
      808.000000       0.087921
      810.000000       0.086411
      812.000000       0.085587
      814.000000       0.084255
      816.000000       0.083850
      818.000000       0.083304
      820.000000       0.080753
      822.000000       0.077594
      824.000000       0.075320
      826.000000       0.073077
      828.000000       0.073613
      830.000000       0.074018
      832.000000       0.072130
      834.000000       0.070797
      836.000000       0.068686
      838.000000       0.067726
      840.000000       0.070063
      842.000000       0.071704
      844.000000       0.077319
      846.000000       0.079355
      848.000000       0.079696
      850.000000       0.079214
      852.000000       0.076415
      854.000000       0.077029
      856.000000       0.081738
      858.000000       0.087847
      860.000000       0.103913
      862.000000       0.112088
      864.000000       0.127233
      866.000000       0.132562
      868.000000       0.140707
      870.000000       0.159085
      872.000000       0.188033
      874.000000       0.247544
      876.000000       0.324000
      878.000000       0.376855
      880.000000       0.431583
      882.000000       0.456296
      884.000000       0.478992
      886.000000       0.603396
      888.000000       0.693890
      890.000000       0.833448
      892.000000       0.913041
      894.000000       0.938861
      896.000000       0.953849
      898.000000       0.987756
      900.000000       1.000000
      902.000000       0.997950
      904.000000       0.985976
      906.000000       0.927097
      908.000000       0.917814
      910.000000       0.935552
      912.000000       0.949813
      914.000000       0.984759
      916.000000       0.971351
      918.000000       0.925537
      920.000000       0.893011
      922.000000       0.834412
      924.000000       0.838663
      926.000000       0.851513
      928.000000       0.876721
      930.000000       0.910708
      932.000000       0.893607
      934.000000       0.873855
      936.000000       0.834317
      938.000000       0.798898
      940.000000       0.797180
      942.000000       0.796142
      944.000000       0.798118
      946.000000       0.798850
      948.000000       0.790869
      950.000000       0.781302
      952.000000       0.718877
      954.000000       0.673633
      956.000000       0.515135
      958.000000       0.447261
      960.000000       0.344152
      962.000000       0.311864
      964.000000       0.281752
      966.000000       0.258312
      968.000000       0.198991
      970.000000       0.169209
      972.000000       0.111855
      974.000000       0.096704
      976.000000       0.076034
      978.000000       0.070644
      980.000000       0.063385
      982.000000       0.055897
      984.000000       0.045464
      986.000000       0.037667
      988.000000       0.028738
      990.000000       0.024691
      992.000000       0.020921
      994.000000       0.019441
      996.000000       0.018290
      998.000000       0.016643
     1000.000000       0.015503
     1002.000000       0.013043
     1004.000000       0.011679
     1006.000000       0.009563
     1008.000000       0.008662
     1010.000000       0.008021
     1012.000000       0.007838
     1014.000000       0.007848
     1016.000000       0.007541
     1018.000000       0.006236
     1020.000000       0.005729
     1022.000000       0.004874
     1024.000000       0.004797
     1026.000000       0.004890
     1028.000000       0.004973
     1030.000000       0.005131
     1032.000000       0.005202
     1034.000000       0.005305
     1036.000000       0.005075
     1038.000000       0.004736
     1040.000000       0.004285
     1042.000000       0.003763
     1044.000000       0.003409
     1046.000000       0.003085
     1048.000000       0.003283
     1050.000000       0.003416
     1052.000000       0.002972
     1054.000000       0.002661
     1056.000000       0.001790
     1058.000000       0.001361
     1060.000000       0.001657
     1062.000000       0.001897
     1064.000000       0.002834
     1066.000000       0.003270
     1068.000000       0.004028
     1070.000000       0.003977
     1072.000000       0.002986
     1074.000000       0.002706
     1076.000000       0.002415
     1078.000000       0.002797
     1080.000000       0.004045
     1082.000000       0.004057
     1084.000000       0.003804
     1086.000000       0.003679
     1088.000000       0.003483
     1090.000000       0.003334
     1092.000000       0.003126
     1094.000000       0.003024
     1096.000000       0.002900
     1098.000000       0.003097
     1100.000000       0.003937
     1102.000000       0.000000
