9,   channel TIR2 SRF from LSTM_ISRF_all_bands.xlsx
Number of data points:
1100
Wavenumber (cm-1)   Filter response
     1094.990419       0.000278
     1095.050372       0.000284
     1095.110332       0.000292
     1095.170299       0.000299
     1095.230272       0.000306
     1095.290252       0.000314
     1095.350238       0.000322
     1095.410231       0.000330
     1095.470231       0.000338
     1095.530237       0.000347
     1095.590249       0.000355
     1095.650268       0.000364
     1095.710294       0.000374
     1095.770327       0.000383
     1095.830365       0.000393
     1095.890411       0.000403
     1095.950463       0.000413
     1096.010522       0.000424
     1096.070587       0.000435
     1096.130659       0.000446
     1096.190737       0.000457
     1096.250822       0.000469
     1096.310914       0.000481
     1096.371012       0.000493
     1096.431117       0.000506
     1096.491228       0.000519
     1096.551346       0.000533
     1096.611471       0.000546
     1096.671602       0.000561
     1096.731739       0.000575
     1096.791884       0.000590
     1096.852035       0.000605
     1096.912192       0.000621
     1096.972356       0.000637
     1097.032527       0.000654
     1097.092704       0.000671
     1097.152888       0.000689
     1097.213079       0.000707
     1097.273276       0.000726
     1097.333480       0.000745
     1097.393690       0.000765
     1097.453907       0.000785
     1097.514130       0.000806
     1097.574361       0.000827
     1097.634597       0.000849
     1097.694841       0.000872
     1097.755091       0.000895
     1097.815347       0.000919
     1097.875611       0.000943
     1097.935881       0.000968
     1097.996157       0.000995
     1098.056440       0.001021
     1098.116730       0.001049
     1098.177026       0.001077
     1098.237329       0.001106
     1098.297639       0.001135
     1098.357955       0.001166
     1098.418278       0.001197
     1098.478607       0.001230
     1098.538943       0.001263
     1098.599286       0.001298
     1098.659635       0.001333
     1098.719991       0.001369
     1098.780354       0.001406
     1098.840723       0.001445
     1098.901099       0.001484
     1098.961481       0.001524
     1099.021871       0.001566
     1099.082266       0.001609
     1099.142669       0.001652
     1099.203078       0.001698
     1099.263493       0.001744
     1099.323916       0.001792
     1099.384345       0.001841
     1099.444780       0.001892
     1099.505223       0.001944
     1099.565672       0.001998
     1099.626127       0.002053
     1099.686589       0.002110
     1099.747058       0.002168
     1099.807534       0.002228
     1099.868016       0.002289
     1099.928505       0.002353
     1099.989000       0.002418
     1100.049502       0.002486
     1100.110011       0.002554
     1100.170526       0.002626
     1100.231049       0.002698
     1100.291577       0.002774
     1100.352113       0.002851
     1100.412655       0.002931
     1100.473203       0.003012
     1100.533759       0.003097
     1100.594321       0.003183
     1100.654890       0.003272
     1100.715465       0.003363
     1100.776047       0.003458
     1100.836636       0.003554
     1100.897231       0.003655
     1100.957833       0.003756
     1101.018442       0.003862
     1101.079057       0.003970
     1101.139680       0.004082
     1101.200308       0.004196
     1101.260944       0.004315
     1101.321586       0.004435
     1101.382235       0.004561
     1101.442890       0.004689
     1101.503552       0.004822
     1101.564221       0.004956
     1101.624897       0.005097
     1101.685579       0.005240
     1101.746268       0.005389
     1101.806963       0.005540
     1101.867666       0.005697
     1101.928375       0.005857
     1101.989090       0.006024
     1102.049813       0.006192
     1102.110542       0.006369
     1102.171277       0.006548
     1102.232020       0.006734
     1102.292769       0.006923
     1102.353525       0.007121
     1102.414287       0.007321
     1102.475057       0.007530
     1102.535832       0.007741
     1102.596615       0.007962
     1102.657404       0.008186
     1102.718200       0.008420
     1102.779003       0.008657
     1102.839813       0.008904
     1102.900629       0.009155
     1102.961451       0.009417
     1103.022281       0.009682
     1103.083117       0.009959
     1103.143960       0.010239
     1103.204810       0.010532
     1103.265666       0.010829
     1103.326529       0.011139
     1103.387399       0.011453
     1103.448276       0.011782
     1103.509159       0.012114
     1103.570049       0.012461
     1103.630946       0.012813
     1103.691849       0.013180
     1103.752759       0.013552
     1103.813676       0.013941
     1103.874600       0.014335
     1103.935530       0.014746
     1103.996467       0.015163
     1104.057411       0.015599
     1104.118361       0.016039
     1104.179319       0.016501
     1104.240283       0.016967
     1104.301253       0.017455
     1104.362231       0.017949
     1104.423215       0.018465
     1104.484206       0.018988
     1104.545204       0.019535
     1104.606208       0.020088
     1104.667219       0.020667
     1104.728237       0.021252
     1104.789261       0.021865
     1104.850293       0.022485
     1104.911331       0.023134
     1104.972376       0.023789
     1105.033427       0.024477
     1105.094486       0.025171
     1105.155551       0.025899
     1105.216622       0.026634
     1105.277701       0.027405
     1105.338786       0.028183
     1105.399878       0.029000
     1105.460977       0.029824
     1105.522083       0.030688
     1105.583195       0.031561
     1105.644314       0.032477
     1105.705440       0.033401
     1105.766573       0.034371
     1105.827712       0.035350
     1105.888858       0.036378
     1105.950011       0.037414
     1106.011171       0.038503
     1106.072337       0.039601
     1106.133510       0.040754
     1106.194690       0.041917
     1106.255877       0.043139
     1106.317070       0.044371
     1106.378271       0.045665
     1106.439478       0.046970
     1106.500692       0.048342
     1106.561912       0.049724
     1106.623139       0.051177
     1106.684374       0.052641
     1106.745615       0.054181
     1106.806862       0.055732
     1106.868117       0.057363
     1106.929378       0.059006
     1106.990646       0.060734
     1107.051921       0.062474
     1107.113202       0.064304
     1107.174491       0.066147
     1107.235786       0.068086
     1107.297088       0.070037
     1107.358397       0.072090
     1107.419712       0.074156
     1107.481034       0.076330
     1107.542363       0.078517
     1107.603699       0.080818
     1107.665042       0.083132
     1107.726392       0.085568
     1107.787748       0.088017
     1107.849111       0.090593
     1107.910481       0.093184
     1107.971858       0.095910
     1108.033241       0.098651
     1108.094631       0.101533
     1108.156028       0.104431
     1108.217432       0.107477
     1108.278843       0.110538
     1108.340260       0.113755
     1108.401685       0.116987
     1108.463116       0.120383
     1108.524554       0.123794
     1108.585999       0.127376
     1108.647450       0.130974
     1108.708908       0.134749
     1108.770374       0.138541
     1108.831846       0.142517
     1108.893324       0.146509
     1108.954810       0.150693
     1109.016303       0.154893
     1109.077802       0.159291
     1109.139308       0.163706
     1109.200821       0.168324
     1109.262341       0.172958
     1109.323867       0.177802
     1109.385400       0.182662
     1109.446941       0.187735
     1109.508488       0.192826
     1109.570042       0.198133
     1109.631602       0.203456
     1109.693170       0.209000
     1109.754744       0.214559
     1109.816325       0.220341
     1109.877913       0.226138
     1109.939508       0.232157
     1110.001110       0.238193
     1110.062719       0.244449
     1110.124334       0.250721
     1110.185956       0.257211
     1110.247585       0.263717
     1110.309221       0.270438
     1110.370864       0.277174
     1110.432513       0.284119
     1110.494170       0.291079
     1110.555833       0.298241
     1110.617503       0.305419
     1110.679180       0.312790
     1110.740864       0.320175
     1110.802555       0.327744
     1110.864252       0.335326
     1110.925957       0.343082
     1110.987668       0.350850
     1111.049386       0.358778
     1111.111111       0.366719
     1111.172843       0.374803
     1111.234582       0.382899
     1111.296327       0.391125
     1111.358080       0.399362
     1111.419839       0.407714
     1111.481605       0.416077
     1111.543378       0.424536
     1111.605158       0.433005
     1111.666945       0.441554
     1111.728738       0.450112
     1111.790539       0.458730
     1111.852346       0.467358
     1111.914160       0.476027
     1111.975981       0.484704
     1112.037809       0.493404
     1112.099644       0.502111
     1112.161486       0.510821
     1112.223334       0.519537
     1112.285190       0.528237
     1112.347052       0.536942
     1112.408922       0.545611
     1112.470798       0.554285
     1112.532681       0.562903
     1112.594571       0.571525
     1112.656467       0.580071
     1112.718371       0.588622
     1112.780282       0.597077
     1112.842199       0.605535
     1112.904123       0.613879
     1112.966055       0.622226
     1113.027993       0.630441
     1113.089938       0.638658
     1113.151890       0.646725
     1113.213848       0.654795
     1113.275814       0.662700
     1113.337787       0.670606
     1113.399766       0.678332
     1113.461753       0.686059
     1113.523746       0.693593
     1113.585746       0.701128
     1113.647753       0.708459
     1113.709767       0.715791
     1113.771788       0.722910
     1113.833816       0.730029
     1113.895851       0.736929
     1113.957892       0.743829
     1114.019941       0.750505
     1114.081996       0.757181
     1114.144059       0.763631
     1114.206128       0.770081
     1114.268204       0.776305
     1114.330287       0.782529
     1114.392378       0.788529
     1114.454475       0.794529
     1114.516578       0.800309
     1114.578689       0.806088
     1114.640807       0.811653
     1114.702932       0.817218
     1114.765063       0.822576
     1114.827202       0.827932
     1114.889347       0.833089
     1114.951500       0.838245
     1115.013659       0.843209
     1115.075825       0.848172
     1115.137998       0.852951
     1115.200178       0.857730
     1115.262365       0.862331
     1115.324559       0.866932
     1115.386760       0.871362
     1115.448968       0.875791
     1115.511183       0.880057
     1115.573405       0.884321
     1115.635633       0.888425
     1115.697869       0.892528
     1115.760112       0.896475
     1115.822361       0.900420
     1115.884618       0.904211
     1115.946881       0.908000
     1116.009151       0.911634
     1116.071429       0.915267
     1116.133713       0.918744
     1116.196004       0.922220
     1116.258302       0.925539
     1116.320607       0.928856
     1116.382919       0.932013
     1116.445238       0.935168
     1116.507564       0.938159
     1116.569897       0.941149
     1116.632237       0.943971
     1116.694584       0.946793
     1116.756938       0.949443
     1116.819299       0.952092
     1116.881666       0.954567
     1116.944041       0.957041
     1117.006423       0.959338
     1117.068811       0.961634
     1117.131207       0.963753
     1117.193610       0.965871
     1117.256019       0.967811
     1117.318436       0.969751
     1117.380859       0.971513
     1117.443290       0.973275
     1117.505727       0.974863
     1117.568172       0.976450
     1117.630623       0.977868
     1117.693081       0.979285
     1117.755547       0.980538
     1117.818019       0.981791
     1117.880499       0.982885
     1117.942985       0.983980
     1118.005478       0.984925
     1118.067979       0.985869
     1118.130486       0.986673
     1118.193000       0.987477
     1118.255521       0.988150
     1118.318050       0.988823
     1118.380585       0.989376
     1118.443127       0.989928
     1118.505676       0.990371
     1118.568233       0.990814
     1118.630796       0.991158
     1118.693366       0.991501
     1118.755943       0.991758
     1118.818528       0.992014
     1118.881119       0.992192
     1118.943717       0.992371
     1119.006322       0.992484
     1119.068935       0.992596
     1119.131554       0.992652
     1119.194180       0.992707
     1119.256813       0.992715
     1119.319454       0.992722
     1119.382101       0.992691
     1119.444755       0.992659
     1119.507417       0.992597
     1119.570085       0.992534
     1119.632760       0.992448
     1119.695443       0.992361
     1119.758132       0.992256
     1119.820829       0.992152
     1119.883532       0.992035
     1119.946243       0.991918
     1120.008960       0.991794
     1120.071685       0.991669
     1120.134416       0.991541
     1120.197155       0.991412
     1120.259900       0.991283
     1120.322653       0.991154
     1120.385413       0.991027
     1120.448179       0.990900
     1120.510953       0.990776
     1120.573734       0.990652
     1120.636522       0.990534
     1120.699316       0.990415
     1120.762118       0.990303
     1120.824927       0.990191
     1120.887743       0.990085
     1120.950566       0.989979
     1121.013396       0.989880
     1121.076233       0.989781
     1121.139077       0.989689
     1121.201928       0.989596
     1121.264787       0.989510
     1121.327652       0.989424
     1121.390524       0.989344
     1121.453404       0.989264
     1121.516290       0.989189
     1121.579183       0.989114
     1121.642084       0.989044
     1121.704992       0.988973
     1121.767906       0.988907
     1121.830828       0.988841
     1121.893757       0.988778
     1121.956692       0.988716
     1122.019635       0.988650
     1122.082585       0.988572
     1122.145542       0.988496
     1122.208506       0.988421
     1122.271477       0.988346
     1122.334456       0.988272
     1122.397441       0.988200
     1122.460433       0.988127
     1122.523433       0.988055
     1122.586439       0.987983
     1122.649453       0.987911
     1122.712473       0.987840
     1122.775501       0.987769
     1122.838536       0.987699
     1122.901578       0.987629
     1122.964627       0.987559
     1123.027683       0.987490
     1123.090746       0.987421
     1123.153816       0.987352
     1123.216893       0.987284
     1123.279978       0.987217
     1123.343069       0.987150
     1123.406167       0.987084
     1123.469273       0.987019
     1123.532386       0.986955
     1123.595506       0.986892
     1123.658633       0.986833
     1123.721766       0.986775
     1123.784908       0.986720
     1123.848056       0.986665
     1123.911211       0.986613
     1123.974373       0.986561
     1124.037543       0.986515
     1124.100719       0.986468
     1124.163903       0.986427
     1124.227094       0.986386
     1124.290292       0.986352
     1124.353497       0.986318
     1124.416709       0.986291
     1124.479928       0.986265
     1124.543154       0.986246
     1124.606388       0.986228
     1124.669628       0.986219
     1124.732876       0.986211
     1124.796131       0.986214
     1124.859393       0.986217
     1124.922662       0.986231
     1124.985938       0.986246
     1125.049221       0.986274
     1125.112511       0.986301
     1125.175809       0.986343
     1125.239113       0.986385
     1125.302425       0.986443
     1125.365744       0.986500
     1125.429070       0.986575
     1125.492403       0.986649
     1125.555743       0.986741
     1125.619090       0.986833
     1125.682445       0.986944
     1125.745807       0.987054
     1125.809175       0.987185
     1125.872551       0.987315
     1125.935934       0.987466
     1125.999324       0.987617
     1126.062722       0.987788
     1126.126126       0.987960
     1126.189538       0.988153
     1126.252956       0.988345
     1126.316382       0.988561
     1126.379815       0.988776
     1126.443255       0.989012
     1126.506703       0.989249
     1126.570157       0.989507
     1126.633619       0.989765
     1126.697087       0.990044
     1126.760563       0.990323
     1126.824046       0.990622
     1126.887537       0.990921
     1126.951034       0.991239
     1127.014538       0.991556
     1127.078050       0.991891
     1127.141569       0.992225
     1127.205095       0.992574
     1127.268628       0.992922
     1127.332168       0.993283
     1127.395716       0.993643
     1127.459271       0.994011
     1127.522832       0.994379
     1127.586401       0.994751
     1127.649977       0.995123
     1127.713561       0.995494
     1127.777151       0.995865
     1127.840749       0.996229
     1127.904354       0.996592
     1127.967966       0.996943
     1128.031585       0.997294
     1128.095211       0.997624
     1128.158845       0.997954
     1128.222485       0.998255
     1128.286133       0.998556
     1128.349788       0.998819
     1128.413451       0.999082
     1128.477120       0.999297
     1128.540797       0.999512
     1128.604481       0.999668
     1128.668172       0.999825
     1128.731870       0.999910
     1128.795575       0.999996
     1128.859288       0.999998
     1128.923007       1.000000
     1128.986734       0.999906
     1129.050469       0.999811
     1129.114210       0.999606
     1129.177958       0.999401
     1129.241714       0.999071
     1129.305477       0.998741
     1129.369247       0.998270
     1129.433025       0.997800
     1129.496809       0.997174
     1129.560601       0.996548
     1129.624400       0.995751
     1129.688206       0.994954
     1129.752019       0.993970
     1129.815840       0.992987
     1129.879668       0.991802
     1129.943503       0.990618
     1130.007345       0.989217
     1130.071194       0.987817
     1130.135051       0.986188
     1130.198915       0.984558
     1130.262786       0.982686
     1130.326664       0.980814
     1130.390550       0.978687
     1130.454443       0.976561
     1130.518343       0.974170
     1130.582250       0.971780
     1130.646164       0.969094
     1130.710086       0.966385
     1130.774015       0.963395
     1130.837951       0.960405
     1130.901894       0.957127
     1130.965845       0.953849
     1131.029803       0.950280
     1131.093768       0.946712
     1131.157740       0.942848
     1131.221719       0.938984
     1131.285706       0.934824
     1131.349700       0.930664
     1131.413701       0.926208
     1131.477710       0.921753
     1131.541726       0.917003
     1131.605749       0.912254
     1131.669779       0.907214
     1131.733816       0.902174
     1131.797861       0.896848
     1131.861913       0.891523
     1131.925972       0.885918
     1131.990038       0.880313
     1132.054112       0.874437
     1132.118193       0.868562
     1132.182281       0.862425
     1132.246377       0.856288
     1132.310480       0.849901
     1132.374590       0.843515
     1132.438707       0.836892
     1132.502831       0.830269
     1132.566963       0.823423
     1132.631102       0.816578
     1132.695248       0.809526
     1132.759402       0.802475
     1132.823563       0.795234
     1132.887731       0.787994
     1132.951906       0.780584
     1133.016089       0.773175
     1133.080279       0.765615
     1133.144476       0.758056
     1133.208680       0.750366
     1133.272892       0.742677
     1133.337111       0.734878
     1133.401337       0.727080
     1133.465571       0.719193
     1133.529812       0.711307
     1133.594060       0.703351
     1133.658315       0.695397
     1133.722578       0.687392
     1133.786848       0.679388
     1133.851125       0.671351
     1133.915410       0.663316
     1133.979702       0.655264
     1134.044001       0.647215
     1134.108307       0.639162
     1134.172621       0.631112
     1134.236942       0.623072
     1134.301270       0.615034
     1134.365606       0.607016
     1134.429949       0.599001
     1134.494299       0.591014
     1134.558657       0.583029
     1134.623022       0.575079
     1134.687394       0.567133
     1134.751773       0.559224
     1134.816160       0.551319
     1134.880554       0.543456
     1134.944955       0.535596
     1135.009364       0.527779
     1135.073780       0.519967
     1135.138203       0.512198
     1135.202634       0.504435
     1135.267072       0.496715
     1135.331517       0.489000
     1135.395969       0.481330
     1135.460429       0.473666
     1135.524896       0.466047
     1135.589371       0.458435
     1135.653853       0.450868
     1135.718342       0.443309
     1135.782838       0.435798
     1135.847342       0.428295
     1135.911853       0.420845
     1135.976372       0.413402
     1136.040897       0.406017
     1136.105431       0.398640
     1136.169971       0.391326
     1136.234519       0.384022
     1136.299074       0.376789
     1136.363636       0.369565
     1136.428206       0.362420
     1136.492783       0.355285
     1136.557368       0.348240
     1136.621960       0.341205
     1136.686559       0.334269
     1136.751165       0.327344
     1136.815779       0.320529
     1136.880400       0.313726
     1136.945029       0.307043
     1137.009665       0.300373
     1137.074308       0.293834
     1137.138958       0.287307
     1137.203616       0.280922
     1137.268282       0.274550
     1137.332954       0.268329
     1137.397634       0.262122
     1137.462322       0.256074
     1137.527016       0.250040
     1137.591718       0.244172
     1137.656428       0.238320
     1137.721145       0.232640
     1137.785869       0.226975
     1137.850600       0.221487
     1137.915339       0.216015
     1137.980085       0.210724
     1138.044839       0.205449
     1138.109600       0.200356
     1138.174368       0.195280
     1138.239144       0.190387
     1138.303927       0.185510
     1138.368718       0.180817
     1138.433515       0.176139
     1138.498321       0.171644
     1138.563133       0.167164
     1138.627953       0.162864
     1138.692781       0.158580
     1138.757615       0.154471
     1138.822458       0.150378
     1138.887307       0.146456
     1138.952164       0.142551
     1139.017028       0.138811
     1139.081900       0.135088
     1139.146779       0.131525
     1139.211666       0.127978
     1139.276559       0.124585
     1139.341461       0.121208
     1139.406369       0.117980
     1139.471285       0.114767
     1139.536209       0.111696
     1139.601140       0.108641
     1139.666078       0.105721
     1139.731023       0.102817
     1139.795977       0.100041
     1139.860937       0.097281
     1139.925905       0.094643
     1139.990880       0.092021
     1140.055863       0.089514
     1140.120853       0.087023
     1140.185850       0.084643
     1140.250855       0.082277
     1140.315867       0.080016
     1140.380887       0.077769
     1140.445914       0.075622
     1140.510949       0.073488
     1140.575991       0.071449
     1140.641040       0.069424
     1140.706097       0.067489
     1140.771161       0.065567
     1140.836233       0.063730
     1140.901312       0.061906
     1140.966399       0.060162
     1141.031492       0.058432
     1141.096594       0.056778
     1141.161703       0.055137
     1141.226819       0.053568
     1141.291942       0.052012
     1141.357074       0.050525
     1141.422212       0.049050
     1141.487358       0.047641
     1141.552511       0.046243
     1141.617672       0.044908
     1141.682841       0.043584
     1141.748016       0.042320
     1141.813199       0.041067
     1141.878390       0.039871
     1141.943588       0.038685
     1142.008793       0.037553
     1142.074006       0.036431
     1142.139227       0.035361
     1142.204455       0.034301
     1142.269690       0.033289
     1142.334933       0.032287
     1142.400183       0.031332
     1142.465440       0.030385
     1142.530706       0.029483
     1142.595978       0.028590
     1142.661258       0.027738
     1142.726546       0.026895
     1142.791840       0.026092
     1142.857143       0.025297
     1142.922453       0.024539
     1142.987770       0.023790
     1143.053095       0.023076
     1143.118427       0.022369
     1143.183767       0.021697
     1143.249114       0.021031
     1143.314469       0.020398
     1143.379831       0.019771
     1143.445200       0.019174
     1143.510577       0.018584
     1143.575962       0.018023
     1143.641354       0.017468
     1143.706754       0.016939
     1143.772161       0.016417
     1143.837575       0.015921
     1143.902997       0.015430
     1143.968426       0.014963
     1144.033863       0.014502
     1144.099308       0.014063
     1144.164760       0.013629
     1144.230219       0.013217
     1144.295686       0.012809
     1144.361160       0.012421
     1144.426642       0.012037
     1144.492132       0.011673
     1144.557628       0.011312
     1144.623133       0.010970
     1144.688645       0.010631
     1144.754164       0.010309
     1144.819691       0.009991
     1144.885225       0.009688
     1144.950767       0.009389
     1145.016316       0.009105
     1145.081873       0.008824
     1145.147438       0.008557
     1145.213010       0.008293
     1145.278589       0.008042
     1145.344176       0.007794
     1145.409770       0.007558
     1145.475372       0.007325
     1145.540982       0.007104
     1145.606599       0.006885
     1145.672223       0.006677
     1145.737855       0.006472
     1145.803495       0.006276
     1145.869142       0.006083
     1145.934796       0.005900
     1146.000458       0.005719
     1146.066128       0.005546
     1146.131805       0.005376
     1146.197490       0.005214
     1146.263182       0.005054
     1146.328882       0.004902
     1146.394589       0.004752
     1146.460304       0.004609
     1146.526026       0.004468
     1146.591756       0.004333
     1146.657493       0.004201
     1146.723238       0.004075
     1146.788991       0.003950
     1146.854751       0.003832
     1146.920518       0.003715
     1146.986294       0.003604
     1147.052076       0.003494
     1147.117866       0.003389
     1147.183664       0.003286
     1147.249469       0.003188
     1147.315282       0.003091
     1147.381103       0.002999
     1147.446931       0.002908
     1147.512766       0.002821
     1147.578609       0.002736
     1147.644460       0.002654
     1147.710318       0.002574
     1147.776184       0.002497
     1147.842057       0.002422
     1147.907938       0.002350
     1147.973826       0.002279
     1148.039722       0.002212
     1148.105626       0.002145
     1148.171537       0.002081
     1148.237456       0.002019
     1148.303382       0.001959
     1148.369316       0.001900
     1148.435257       0.001844
     1148.501206       0.001789
     1148.567162       0.001736
     1148.633127       0.001684
     1148.699098       0.001635
     1148.765078       0.001586
     1148.831064       0.001539
     1148.897059       0.001494
     1148.963061       0.001450
     1149.029070       0.001407
     1149.095088       0.001366
     1149.161112       0.001325
     1149.227145       0.001286
     1149.293185       0.001248
     1149.359232       0.001212
     1149.425287       0.001176
     1149.491350       0.001142
     1149.557420       0.001108
     1149.623498       0.001076
     1149.689584       0.001044
     1149.755677       0.001014
     1149.821778       0.000984
     1149.887886       0.000956
     1149.954002       0.000928
     1150.020125       0.000901
     1150.086256       0.000875
     1150.152395       0.000850
     1150.218542       0.000825
     1150.284695       0.000801
     1150.350857       0.000778
     1150.417026       0.000756
     1150.483203       0.000734
     1150.549387       0.000713
     1150.615579       0.000692
     1150.681779       0.000672
     1150.747986       0.000653
     1150.814201       0.000634
     1150.880424       0.000616
     1150.946654       0.000599
     1151.012891       0.000582
     1151.079137       0.000565
     1151.145390       0.000549
     1151.211650       0.000533
     1151.277918       0.000518
     1151.344194       0.000504
     1151.410478       0.000489
     1151.476769       0.000476
     1151.543068       0.000462
     1151.609374       0.000449
     1151.675688       0.000436
     1151.742010       0.000424
     1151.808339       0.000412
     1151.874676       0.000401
     1151.941021       0.000390
     1152.007373       0.000379
     1152.073733       0.000368
     1152.140100       0.000358
     1152.206475       0.000348
     1152.272858       0.000338
     1152.339249       0.000329
     1152.405647       0.000320
     1152.472053       0.000311
     1152.538466       0.000303
     1152.604887       0.000294
     1152.671316       0.000286
     1152.737752       0.000278
     1152.804196       0.000271
     1152.870648       0.000263
     1152.937107       0.000256
     1153.003574       0.000249
     1153.070049       0.000242
     1153.136531       0.000236
     1153.203021       0.000229
     1153.269519       0.000223
     1153.336024       0.000217
     1153.402537       0.000211
     1153.469058       0.000206
     1153.535587       0.000200
     1153.602123       0.000195
     1153.668666       0.000189
     1153.735218       0.000184
     1153.801777       0.000179
     1153.868344       0.000175
     1153.934918       0.000170
     1154.001500       0.000165
     1154.068090       0.000161
     1154.134688       0.000157
     1154.201293       0.000153
     1154.267906       0.000149
     1154.334526       0.000145
     1154.401154       0.000141
     1154.467790       0.000137
     1154.534434       0.000134
     1154.601085       0.000130
     1154.667744       0.000127
     1154.734411       0.000123
     1154.801086       0.000120
     1154.867768       0.000117
     1154.934457       0.000114
     1155.001155       0.000111
     1155.067860       0.000108
     1155.134573       0.000106
     1155.201294       0.000103
     1155.268022       0.000100
     1155.334758       0.000098
     1155.401502       0.000095
     1155.468254       0.000093
     1155.535013       0.000090
     1155.601780       0.000088
     1155.668554       0.000086
     1155.735337       0.000084
     1155.802127       0.000082
     1155.868924       0.000080
     1155.935730       0.000078
     1156.002543       0.000076
     1156.069364       0.000074
     1156.136193       0.000072
     1156.203029       0.000070
     1156.269873       0.000068
     1156.336725       0.000067
     1156.403585       0.000065
     1156.470452       0.000063
     1156.537327       0.000062
     1156.604210       0.000060
     1156.671101       0.000059
     1156.737999       0.000057
     1156.804905       0.000056
     1156.871819       0.000055
     1156.938740       0.000053
     1157.005669       0.000052
     1157.072606       0.000051
     1157.139551       0.000049
     1157.206504       0.000048
     1157.273464       0.000047
     1157.340432       0.000046
     1157.407407       0.000045
     1157.474391       0.000044
     1157.541382       0.000043
     1157.608381       0.000042
     1157.675388       0.000041
     1157.742402       0.000040
     1157.809425       0.000039
     1157.876455       0.000038
     1157.943492       0.000037
     1158.010538       0.000036
     1158.077591       0.000035
     1158.144652       0.000034
     1158.211721       0.000034
     1158.278798       0.000033
     1158.345882       0.000032
     1158.412974       0.000031
     1158.480074       0.000030
     1158.547182       0.000030
     1158.614297       0.000029
     1158.681421       0.000028
     1158.748552       0.000028
     1158.815690       0.000027
     1158.882837       0.000026
     1158.949991       0.000026
     1159.017153       0.000025
     1159.084323       0.000025
     1159.151501       0.000024
     1159.218687       0.000024
     1159.285880       0.000023
     1159.353081       0.000022
     1159.420290       0.000022
     1159.487507       0.000021
     1159.554731       0.000021
     1159.621963       0.000021
     1159.689203       0.000020
     1159.756451       0.000020
     1159.823707       0.000019
     1159.890970       0.000019
     1159.958242       0.000018
     1160.025521       0.000018
     1160.092807       0.000017
     1160.160102       0.000017
     1160.227405       0.000017
     1160.294715       0.000016
     1160.362033       0.000016
     1160.429359       0.000016
     1160.496693       0.000015
     1160.564034       0.000015
     1160.631383       0.000015
     1160.698741       0.000014
     1160.766106       0.000014
     1160.833478       0.000014
     1160.900859       0.000013
     1160.968248       0.000013
     1161.035644       0.000013
     1161.103048       0.000013
     1161.170460       0.000012
     1161.237880       0.000012
     1161.305307       0.000012
     1161.372743       0.000011
     1161.440186       0.000011
     1161.507637       0.000011
     1161.575096       0.000011
     1161.642563       0.000011
     1161.710037       0.000010
     1161.777520       0.000010
     1161.845010       0.000010
     1161.912508       0.000010
     1161.980014       0.000009
     1162.047528       0.000009
     1162.115049       0.000009
     1162.182579       0.000009
     1162.250116       0.000009
     1162.317661       0.000008
     1162.385214       0.000008
     1162.452775       0.000008
     1162.520344       0.000008
     1162.587921       0.000008
     1162.655505       0.000008
     1162.723097       0.000007
     1162.790698       0.000007
     1162.858306       0.000007
     1162.925922       0.000007
     1162.993545       0.000007
     1163.061177       0.000007
     1163.128817       0.000007
     1163.196464       0.000006
     1163.264119       0.000006
     1163.331782       0.000006
     1163.399453       0.000006
     1163.467132       0.000006
     1163.534819       0.000006
     1163.602513       0.000006
     1163.670216       0.000006
     1163.737926       0.000005
     1163.805644       0.000005
     1163.873371       0.000005
     1163.941105       0.000005
     1164.008846       0.000005
     1164.076596       0.000005
     1164.144354       0.000005
     1164.212119       0.000005
     1164.279893       0.000005
     1164.347674       0.000005
     1164.415463       0.000004
     1164.483261       0.000004
     1164.551066       0.000004
     1164.618878       0.000004
     1164.686699       0.000004
     1164.754528       0.000004
     1164.822365       0.000004
     1164.890209       0.000004
     1164.958062       0.000004
     1165.025922       0.000004
     1165.093790       0.000004
