28 , eos_02_modis_28.flt     shift of 2.00cm-1 applied
Number of data points:
529
Wavenumber (cm-1)   Filter response
     1298.000000       0.000000
     1298.250000       0.000000
     1298.500000       0.000000
     1298.750000       0.010358
     1299.000000       0.010642
     1299.250000       0.011074
     1299.500000       0.011303
     1299.750000       0.011774
     1300.000000       0.012260
     1300.250000       0.012758
     1300.500000       0.013272
     1300.750000       0.013795
     1301.000000       0.014328
     1301.250000       0.014867
     1301.500000       0.014521
     1301.750000       0.015028
     1302.000000       0.015567
     1302.250000       0.015250
     1302.500000       0.015784
     1302.750000       0.016342
     1303.000000       0.015424
     1303.250000       0.015965
     1303.500000       0.016528
     1303.750000       0.017118
     1304.000000       0.017736
     1304.250000       0.018378
     1304.500000       0.019028
     1304.750000       0.019685
     1305.000000       0.019325
     1305.250000       0.019950
     1305.500000       0.020580
     1305.750000       0.021218
     1306.000000       0.021861
     1306.250000       0.022510
     1306.500000       0.023168
     1306.750000       0.023841
     1307.000000       0.024532
     1307.250000       0.025243
     1307.500000       0.025979
     1307.750000       0.026744
     1308.000000       0.027539
     1308.250000       0.028368
     1308.500000       0.029231
     1308.750000       0.030128
     1309.000000       0.031057
     1309.250000       0.032016
     1309.500000       0.033002
     1309.750000       0.034010
     1310.000000       0.035035
     1310.250000       0.036074
     1310.500000       0.037124
     1310.750000       0.038187
     1311.000000       0.039263
     1311.250000       0.040350
     1311.500000       0.041448
     1311.750000       0.042565
     1312.000000       0.043705
     1312.250000       0.044876
     1312.500000       0.046085
     1312.750000       0.047338
     1313.000000       0.048637
     1313.250000       0.049987
     1313.500000       0.051393
     1313.750000       0.052853
     1314.000000       0.054367
     1314.250000       0.055935
     1314.500000       0.057553
     1314.750000       0.059214
     1315.000000       0.060912
     1315.250000       0.062648
     1315.500000       0.064422
     1315.750000       0.066237
     1316.000000       0.068099
     1316.250000       0.070009
     1316.500000       0.071964
     1316.750000       0.073971
     1317.000000       0.076039
     1317.250000       0.078178
     1317.500000       0.080390
     1317.750000       0.082679
     1318.000000       0.085044
     1318.250000       0.087483
     1318.500000       0.090003
     1318.750000       0.092609
     1319.000000       0.095302
     1319.250000       0.098074
     1319.500000       0.100926
     1319.750000       0.103859
     1320.000000       0.106872
     1320.250000       0.109966
     1320.500000       0.113144
     1320.750000       0.116405
     1321.000000       0.119754
     1321.250000       0.123199
     1321.500000       0.126744
     1321.750000       0.130397
     1322.000000       0.134169
     1322.250000       0.138069
     1322.500000       0.142092
     1322.750000       0.146233
     1323.000000       0.150496
     1323.250000       0.154879
     1323.500000       0.159385
     1323.750000       0.164024
     1324.000000       0.168802
     1324.250000       0.173725
     1324.500000       0.178796
     1324.750000       0.184028
     1325.000000       0.189431
     1325.250000       0.195005
     1325.500000       0.200746
     1325.750000       0.206664
     1326.000000       0.212762
     1326.250000       0.219051
     1326.500000       0.225541
     1326.750000       0.232242
     1327.000000       0.239156
     1327.250000       0.246281
     1327.500000       0.253625
     1327.750000       0.261185
     1328.000000       0.268968
     1328.250000       0.276976
     1328.500000       0.285227
     1328.750000       0.293728
     1329.000000       0.302475
     1329.250000       0.311465
     1329.500000       0.320700
     1329.750000       0.330181
     1330.000000       0.339890
     1330.250000       0.349807
     1330.500000       0.359915
     1330.750000       0.370203
     1331.000000       0.380645
     1331.250000       0.391244
     1331.500000       0.401972
     1331.750000       0.412807
     1332.000000       0.423731
     1332.250000       0.434731
     1332.500000       0.445795
     1332.750000       0.456909
     1333.000000       0.468091
     1333.250000       0.479382
     1333.500000       0.490795
     1333.750000       0.502330
     1334.000000       0.513989
     1334.250000       0.525736
     1334.500000       0.537555
     1334.750000       0.549423
     1335.000000       0.561340
     1335.250000       0.573254
     1335.500000       0.585105
     1335.750000       0.596866
     1336.000000       0.608511
     1336.250000       0.619989
     1336.500000       0.631272
     1336.750000       0.642321
     1337.000000       0.653093
     1337.250000       0.663572
     1337.500000       0.673743
     1337.750000       0.683644
     1338.000000       0.693270
     1338.250000       0.702641
     1338.500000       0.711780
     1338.750000       0.720682
     1339.000000       0.729346
     1339.250000       0.737767
     1339.500000       0.745938
     1339.750000       0.753854
     1340.000000       0.761517
     1340.250000       0.768923
     1340.500000       0.776062
     1340.750000       0.782931
     1341.000000       0.789542
     1341.250000       0.795893
     1341.500000       0.801980
     1341.750000       0.807807
     1342.000000       0.813381
     1342.250000       0.818709
     1342.500000       0.823794
     1342.750000       0.828643
     1343.000000       0.833261
     1343.250000       0.837648
     1343.500000       0.841815
     1343.750000       0.845769
     1344.000000       0.849500
     1344.250000       0.853010
     1344.500000       0.856293
     1344.750000       0.859352
     1345.000000       0.862203
     1345.250000       0.864850
     1345.500000       0.867298
     1345.750000       0.869545
     1346.000000       0.871609
     1346.250000       0.873502
     1346.500000       0.875225
     1346.750000       0.876787
     1347.000000       0.878211
     1347.250000       0.879504
     1347.500000       0.880686
     1347.750000       0.881782
     1348.000000       0.882805
     1348.250000       0.883761
     1348.500000       0.884634
     1348.750000       0.885452
     1349.000000       0.886223
     1349.250000       0.886941
     1349.500000       0.887627
     1349.750000       0.888308
     1350.000000       0.889001
     1350.250000       0.889730
     1350.500000       0.890511
     1350.750000       0.891350
     1351.000000       0.892256
     1351.250000       0.893203
     1351.500000       0.894194
     1351.750000       0.895229
     1352.000000       0.896297
     1352.250000       0.897399
     1352.500000       0.898532
     1352.750000       0.899692
     1353.000000       0.900879
     1353.250000       0.902093
     1353.500000       0.903338
     1353.750000       0.904613
     1354.000000       0.905931
     1354.250000       0.907287
     1354.500000       0.908678
     1354.750000       0.910102
     1355.000000       0.911556
     1355.250000       0.913035
     1355.500000       0.914529
     1355.750000       0.916028
     1356.000000       0.917529
     1356.250000       0.919032
     1356.500000       0.920528
     1356.750000       0.922038
     1357.000000       0.923563
     1357.250000       0.925101
     1357.500000       0.926646
     1357.750000       0.928198
     1358.000000       0.929759
     1358.250000       0.931331
     1358.500000       0.932914
     1358.750000       0.934504
     1359.000000       0.936102
     1359.250000       0.937707
     1359.500000       0.939319
     1359.750000       0.940937
     1360.000000       0.942562
     1360.250000       0.944194
     1360.500000       0.945826
     1360.750000       0.947457
     1361.000000       0.949089
     1361.250000       0.950721
     1361.500000       0.952356
     1361.750000       0.953993
     1362.000000       0.955638
     1362.250000       0.957298
     1362.500000       0.958970
     1362.750000       0.960653
     1363.000000       0.962348
     1363.250000       0.964047
     1363.500000       0.965746
     1363.750000       0.967439
     1364.000000       0.969118
     1364.250000       0.970776
     1364.500000       0.972412
     1364.750000       0.974020
     1365.000000       0.975607
     1365.250000       0.977172
     1365.500000       0.978714
     1365.750000       0.980235
     1366.000000       0.981745
     1366.250000       0.983239
     1366.500000       0.984722
     1366.750000       0.986190
     1367.000000       0.987628
     1367.250000       0.989035
     1367.500000       0.990404
     1367.750000       0.991743
     1368.000000       0.993034
     1368.250000       0.994256
     1368.500000       0.995401
     1368.750000       0.996455
     1369.000000       0.997398
     1369.250000       0.998216
     1369.500000       0.998900
     1369.750000       0.999429
     1370.000000       0.999790
     1370.250000       0.999976
     1370.500000       1.000000
     1370.750000       0.999868
     1371.000000       0.999570
     1371.250000       0.999113
     1371.500000       0.998484
     1371.750000       0.997673
     1372.000000       0.996678
     1372.250000       0.995492
     1372.500000       0.994121
     1372.750000       0.992569
     1373.000000       0.990843
     1373.250000       0.988945
     1373.500000       0.986874
     1373.750000       0.984656
     1374.000000       0.982315
     1374.250000       0.979875
     1374.500000       0.977357
     1374.750000       0.974781
     1375.000000       0.972162
     1375.250000       0.969509
     1375.500000       0.966831
     1375.750000       0.964130
     1376.000000       0.961411
     1376.250000       0.958654
     1376.500000       0.955833
     1376.750000       0.952925
     1377.000000       0.949906
     1377.250000       0.946762
     1377.500000       0.943471
     1377.750000       0.940029
     1378.000000       0.936431
     1378.250000       0.932658
     1378.500000       0.928697
     1378.750000       0.924543
     1379.000000       0.920199
     1379.250000       0.915668
     1379.500000       0.910957
     1379.750000       0.906074
     1380.000000       0.901033
     1380.250000       0.895835
     1380.500000       0.890486
     1380.750000       0.884999
     1381.000000       0.879380
     1381.250000       0.873627
     1381.500000       0.867741
     1381.750000       0.861711
     1382.000000       0.855515
     1382.250000       0.849156
     1382.500000       0.842633
     1382.750000       0.835961
     1383.000000       0.829163
     1383.250000       0.822246
     1383.500000       0.815214
     1383.750000       0.808076
     1384.000000       0.800840
     1384.250000       0.793504
     1384.500000       0.786067
     1384.750000       0.778504
     1385.000000       0.770816
     1385.250000       0.763009
     1385.500000       0.755081
     1385.750000       0.747046
     1386.000000       0.738921
     1386.250000       0.730709
     1386.500000       0.722400
     1386.750000       0.714011
     1387.000000       0.705552
     1387.250000       0.697029
     1387.500000       0.688438
     1387.750000       0.679783
     1388.000000       0.671077
     1388.250000       0.662322
     1388.500000       0.653521
     1388.750000       0.644686
     1389.000000       0.635837
     1389.250000       0.626976
     1389.500000       0.618108
     1389.750000       0.609246
     1390.000000       0.600402
     1390.250000       0.591575
     1390.500000       0.582778
     1390.750000       0.574017
     1391.000000       0.565295
     1391.250000       0.556597
     1391.500000       0.547889
     1391.750000       0.539150
     1392.000000       0.530381
     1392.250000       0.521574
     1392.500000       0.512735
     1392.750000       0.503870
     1393.000000       0.494987
     1393.250000       0.486095
     1393.500000       0.477219
     1393.750000       0.468373
     1394.000000       0.459570
     1394.250000       0.450819
     1394.500000       0.442088
     1394.750000       0.433383
     1395.000000       0.424701
     1395.250000       0.416049
     1395.500000       0.407441
     1395.750000       0.398890
     1396.000000       0.390404
     1396.250000       0.382005
     1396.500000       0.373709
     1396.750000       0.365527
     1397.000000       0.357454
     1397.250000       0.349484
     1397.500000       0.341605
     1397.750000       0.333813
     1398.000000       0.326095
     1398.250000       0.318449
     1398.500000       0.310873
     1398.750000       0.303364
     1399.000000       0.295920
     1399.250000       0.288550
     1399.500000       0.281263
     1399.750000       0.274066
     1400.000000       0.266958
     1400.250000       0.259951
     1400.500000       0.253054
     1400.750000       0.246271
     1401.000000       0.239606
     1401.250000       0.233062
     1401.500000       0.226641
     1401.750000       0.220339
     1402.000000       0.214153
     1402.250000       0.208064
     1402.500000       0.202076
     1402.750000       0.196190
     1403.000000       0.190407
     1403.250000       0.184744
     1403.500000       0.179206
     1403.750000       0.173803
     1404.000000       0.168541
     1404.250000       0.163423
     1404.500000       0.158449
     1404.750000       0.153620
     1405.000000       0.148930
     1405.250000       0.144360
     1405.500000       0.139906
     1405.750000       0.135564
     1406.000000       0.131333
     1406.250000       0.127218
     1406.500000       0.123219
     1406.750000       0.119339
     1407.000000       0.115579
     1407.250000       0.111934
     1407.500000       0.108405
     1407.750000       0.104990
     1408.000000       0.101687
     1408.250000       0.098490
     1408.500000       0.095393
     1408.750000       0.092394
     1409.000000       0.089494
     1409.250000       0.086691
     1409.500000       0.083979
     1409.750000       0.081361
     1410.000000       0.078830
     1410.250000       0.076382
     1410.500000       0.074013
     1410.750000       0.071721
     1411.000000       0.069508
     1411.250000       0.067371
     1411.500000       0.065303
     1411.750000       0.063307
     1412.000000       0.061380
     1412.250000       0.059522
     1412.500000       0.057727
     1412.750000       0.055995
     1413.000000       0.054322
     1413.250000       0.052700
     1413.500000       0.051128
     1413.750000       0.049603
     1414.000000       0.048129
     1414.250000       0.046704
     1414.500000       0.045324
     1414.750000       0.043989
     1415.000000       0.042700
     1415.250000       0.041454
     1415.500000       0.040249
     1415.750000       0.039084
     1416.000000       0.037955
     1416.250000       0.036858
     1416.500000       0.035791
     1416.750000       0.034752
     1417.000000       0.033743
     1417.250000       0.032760
     1417.500000       0.031802
     1417.750000       0.030870
     1418.000000       0.029964
     1418.250000       0.029084
     1418.500000       0.028229
     1418.750000       0.027401
     1419.000000       0.026600
     1419.250000       0.025823
     1419.500000       0.025073
     1419.750000       0.024349
     1420.000000       0.023654
     1420.250000       0.022987
     1420.500000       0.022346
     1420.750000       0.021733
     1421.000000       0.021145
     1421.250000       0.020581
     1421.500000       0.020039
     1421.750000       0.019516
     1422.000000       0.019009
     1422.250000       0.018517
     1422.500000       0.018036
     1422.750000       0.017564
     1423.000000       0.017103
     1423.250000       0.016652
     1423.500000       0.016210
     1423.750000       0.015778
     1424.000000       0.015355
     1424.250000       0.014944
     1424.500000       0.014544
     1424.750000       0.014156
     1425.000000       0.013779
     1425.250000       0.013413
     1425.500000       0.013056
     1425.750000       0.012710
     1426.000000       0.012376
     1426.250000       0.012057
     1426.500000       0.011751
     1426.750000       0.011457
     1427.000000       0.011176
     1427.250000       0.011201
     1427.500000       0.011111
     1427.750000       0.011035
     1428.000000       0.010798
     1428.250000       0.010706
     1428.500000       0.010469
     1428.750000       0.010250
     1429.000000       0.010258
     1429.250000       0.010051
     1429.500000       0.000000
     1429.750000       0.000000
     1430.000000       0.000000
