9, channel 9 SRF extracted from AHI-9_SpectralResponsivity_Data.xlsx (release Oct 2013)
Number of data points:
2001
Wavenumber (cm-1)   Filter response
     1345.000000       0.000000
     1345.100000       0.000000
     1345.200000       0.000000
     1345.300000       0.000000
     1345.400000       0.000000
     1345.500000       0.000000
     1345.600000       0.000000
     1345.700000       0.000000
     1345.800000       0.000000
     1345.900000       0.000000
     1346.000000       0.000000
     1346.100000       0.000000
     1346.200000       0.000000
     1346.300000       0.000000
     1346.400000       0.000000
     1346.500000       0.000000
     1346.600000       0.000000
     1346.700000       0.000000
     1346.800000       0.000000
     1346.900000       0.000000
     1347.000000       0.000000
     1347.100000       0.000000
     1347.200000       0.000000
     1347.300000       0.000000
     1347.400000       0.000000
     1347.500000       0.000000
     1347.600000       0.000000
     1347.700000       0.000000
     1347.800000       0.000000
     1347.900000       0.000000
     1348.000000       0.000000
     1348.100000       0.000000
     1348.200000       0.000000
     1348.300000       0.000000
     1348.400000       0.000000
     1348.500000       0.000000
     1348.600000       0.000000
     1348.700000       0.000000
     1348.800000       0.000000
     1348.900000       0.000000
     1349.000000       0.000000
     1349.100000       0.000000
     1349.200000       0.000000
     1349.300000       0.000000
     1349.400000       0.000000
     1349.500000       0.000000
     1349.600000       0.000000
     1349.700000       0.000000
     1349.800000       0.000000
     1349.900000       0.000000
     1350.000000       0.000000
     1350.100000       0.000000
     1350.200000       0.000000
     1350.300000       0.000000
     1350.400000       0.000000
     1350.500000       0.000000
     1350.600000       0.000000
     1350.700000       0.000000
     1350.800000       0.000000
     1350.900000       0.000000
     1351.000000       0.000000
     1351.100000       0.000000
     1351.200000       0.000000
     1351.300000       0.000000
     1351.400000       0.000000
     1351.500000       0.000000
     1351.600000       0.000000
     1351.700000       0.000000
     1351.800000       0.000000
     1351.900000       0.000000
     1352.000000       0.000000
     1352.100000       0.000000
     1352.200000       0.000000
     1352.300000       0.000000
     1352.400000       0.000000
     1352.500000       0.000000
     1352.600000       0.000000
     1352.700000       0.000000
     1352.800000       0.000000
     1352.900000       0.000000
     1353.000000       0.000000
     1353.100000       0.000000
     1353.200000       0.000000
     1353.300000       0.000000
     1353.400000       0.000000
     1353.500000       0.000000
     1353.600000       0.000000
     1353.700000       0.000000
     1353.800000       0.000000
     1353.900000       0.000000
     1354.000000       0.000000
     1354.100000       0.000000
     1354.200000       0.000000
     1354.300000       0.000000
     1354.400000       0.000000
     1354.500000       0.000000
     1354.600000       0.000000
     1354.700000       0.000000
     1354.800000       0.000000
     1354.900000       0.000000
     1355.000000       0.000000
     1355.100000       0.000000
     1355.200000       0.000000
     1355.300000       0.000000
     1355.400000       0.000000
     1355.500000       0.000000
     1355.600000       0.000000
     1355.700000       0.000000
     1355.800000       0.000000
     1355.900000       0.000000
     1356.000000       0.000000
     1356.100000       0.000000
     1356.200000       0.000000
     1356.300000       0.000000
     1356.400000       0.000000
     1356.500000       0.000000
     1356.600000       0.000000
     1356.700000       0.000000
     1356.800000       0.000000
     1356.900000       0.000000
     1357.000000       0.000000
     1357.100000       0.000000
     1357.200000       0.000000
     1357.300000       0.000000
     1357.400000       0.000000
     1357.500000       0.000000
     1357.600000       0.000000
     1357.700000       0.000000
     1357.800000       0.000000
     1357.900000       0.000000
     1358.000000       0.000000
     1358.100000       0.000000
     1358.200000       0.000000
     1358.300000       0.000000
     1358.400000       0.000000
     1358.500000       0.000000
     1358.600000       0.000000
     1358.700000       0.000000
     1358.800000       0.000000
     1358.900000       0.000000
     1359.000000       0.000000
     1359.100000       0.000000
     1359.200000       0.000000
     1359.300000       0.000000
     1359.400000       0.000000
     1359.500000       0.000000
     1359.600000       0.000000
     1359.700000       0.000000
     1359.800000       0.000000
     1359.900000       0.000000
     1360.000000       0.000000
     1360.100000       0.000000
     1360.200000       0.000000
     1360.300000       0.000000
     1360.400000       0.000000
     1360.500000       0.000000
     1360.600000       0.000000
     1360.700000       0.000000
     1360.800000       0.000000
     1360.900000       0.000000
     1361.000000       0.000000
     1361.100000       0.000000
     1361.200000       0.000000
     1361.300000       0.000000
     1361.400000       0.000000
     1361.500000       0.000000
     1361.600000       0.000000
     1361.700000       0.000000
     1361.800000       0.000000
     1361.900000       0.000000
     1362.000000       0.000000
     1362.100000       0.000000
     1362.200000       0.000000
     1362.300000       0.000000
     1362.400000       0.000000
     1362.500000       0.000000
     1362.600000       0.000000
     1362.700000       0.000000
     1362.800000       0.000000
     1362.900000       0.000000
     1363.000000       0.000000
     1363.100000       0.000000
     1363.200000       0.000000
     1363.300000       0.000000
     1363.400000       0.000000
     1363.500000       0.000000
     1363.600000       0.000000
     1363.700000       0.000000
     1363.800000       0.000000
     1363.900000       0.000000
     1364.000000       0.000000
     1364.100000       0.000000
     1364.200000       0.000000
     1364.300000       0.000000
     1364.400000       0.000000
     1364.500000       0.000000
     1364.600000       0.000000
     1364.700000       0.000000
     1364.800000       0.000000
     1364.900000       0.000000
     1365.000000       0.000000
     1365.100000       0.000000
     1365.200000       0.000000
     1365.300000       0.000000
     1365.400000       0.000000
     1365.500000       0.000000
     1365.600000       0.000000
     1365.700000       0.000000
     1365.800000       0.000000
     1365.900000       0.000000
     1366.000000       0.000000
     1366.100000       0.000000
     1366.200000       0.000000
     1366.300000       0.000000
     1366.400000       0.000000
     1366.500000       0.000000
     1366.600000       0.000000
     1366.700000       0.000000
     1366.800000       0.000000
     1366.900000       0.000000
     1367.000000       0.000000
     1367.100000       0.000000
     1367.200000       0.000000
     1367.300000       0.000000
     1367.400000       0.000000
     1367.500000       0.000000
     1367.600000       0.000000
     1367.700000       0.000000
     1367.800000       0.000000
     1367.900000       0.000000
     1368.000000       0.000000
     1368.100000       0.000000
     1368.200000       0.000000
     1368.300000       0.000000
     1368.400000       0.000000
     1368.500000       0.000000
     1368.600000       0.000000
     1368.700000       0.000000
     1368.800000       0.000000
     1368.900000       0.000000
     1369.000000       0.000000
     1369.100000       0.000000
     1369.200000       0.000000
     1369.300000       0.000000
     1369.400000       0.000000
     1369.500000       0.000000
     1369.600000       0.000000
     1369.700000       0.000000
     1369.800000       0.000000
     1369.900000       0.000000
     1370.000000       0.000000
     1370.100000       0.000000
     1370.200000       0.000000
     1370.300000       0.000000
     1370.400000       0.000001
     1370.500000       0.000000
     1370.600000       0.000000
     1370.700000       0.000000
     1370.800000       0.000002
     1370.900000       0.000008
     1371.000000       0.000023
     1371.100000       0.000058
     1371.200000       0.000105
     1371.300000       0.000165
     1371.400000       0.000230
     1371.500000       0.000299
     1371.600000       0.000369
     1371.700000       0.000440
     1371.800000       0.000511
     1371.900000       0.000584
     1372.000000       0.000657
     1372.100000       0.000732
     1372.200000       0.000808
     1372.300000       0.000885
     1372.400000       0.000957
     1372.500000       0.001043
     1372.600000       0.001234
     1372.700000       0.001407
     1372.800000       0.001496
     1372.900000       0.001580
     1373.000000       0.001670
     1373.100000       0.001763
     1373.200000       0.001858
     1373.300000       0.001958
     1373.400000       0.002061
     1373.500000       0.002168
     1373.600000       0.002279
     1373.700000       0.002395
     1373.800000       0.002514
     1373.900000       0.002637
     1374.000000       0.002763
     1374.100000       0.002891
     1374.200000       0.003023
     1374.300000       0.003156
     1374.400000       0.003292
     1374.500000       0.003430
     1374.600000       0.003570
     1374.700000       0.003710
     1374.800000       0.003850
     1374.900000       0.003992
     1375.000000       0.004136
     1375.100000       0.004282
     1375.200000       0.004431
     1375.300000       0.004582
     1375.400000       0.004736
     1375.500000       0.004890
     1375.600000       0.005040
     1375.700000       0.005184
     1375.800000       0.005317
     1375.900000       0.005445
     1376.000000       0.005571
     1376.100000       0.005699
     1376.200000       0.005831
     1376.300000       0.005966
     1376.400000       0.006104
     1376.500000       0.006245
     1376.600000       0.006387
     1376.700000       0.006531
     1376.800000       0.006676
     1376.900000       0.006822
     1377.000000       0.006968
     1377.100000       0.007116
     1377.200000       0.007264
     1377.300000       0.007413
     1377.400000       0.007564
     1377.500000       0.007716
     1377.600000       0.007871
     1377.700000       0.008028
     1377.800000       0.008190
     1377.900000       0.008356
     1378.000000       0.008527
     1378.100000       0.008704
     1378.200000       0.008887
     1378.300000       0.009077
     1378.400000       0.009273
     1378.500000       0.009476
     1378.600000       0.009686
     1378.700000       0.009901
     1378.800000       0.010124
     1378.900000       0.010351
     1379.000000       0.010582
     1379.100000       0.010813
     1379.200000       0.011044
     1379.300000       0.011275
     1379.400000       0.011511
     1379.500000       0.011748
     1379.600000       0.011989
     1379.700000       0.012233
     1379.800000       0.012480
     1379.900000       0.012730
     1380.000000       0.012983
     1380.100000       0.013241
     1380.200000       0.013504
     1380.300000       0.013771
     1380.400000       0.014043
     1380.500000       0.014322
     1380.600000       0.014606
     1380.700000       0.014897
     1380.800000       0.015195
     1380.900000       0.015500
     1381.000000       0.015811
     1381.100000       0.016130
     1381.200000       0.016457
     1381.300000       0.016790
     1381.400000       0.017129
     1381.500000       0.017475
     1381.600000       0.017826
     1381.700000       0.018182
     1381.800000       0.018543
     1381.900000       0.018910
     1382.000000       0.019281
     1382.100000       0.019657
     1382.200000       0.020038
     1382.300000       0.020422
     1382.400000       0.020816
     1382.500000       0.021218
     1382.600000       0.021635
     1382.700000       0.022067
     1382.800000       0.022508
     1382.900000       0.022954
     1383.000000       0.023410
     1383.100000       0.023873
     1383.200000       0.024346
     1383.300000       0.024827
     1383.400000       0.025318
     1383.500000       0.025817
     1383.600000       0.026328
     1383.700000       0.026849
     1383.800000       0.027381
     1383.900000       0.027924
     1384.000000       0.028478
     1384.100000       0.029041
     1384.200000       0.029616
     1384.300000       0.030201
     1384.400000       0.030795
     1384.500000       0.031407
     1384.600000       0.032041
     1384.700000       0.032690
     1384.800000       0.033354
     1384.900000       0.034030
     1385.000000       0.034720
     1385.100000       0.035422
     1385.200000       0.036137
     1385.300000       0.036866
     1385.400000       0.037609
     1385.500000       0.038364
     1385.600000       0.039134
     1385.700000       0.039919
     1385.800000       0.040716
     1385.900000       0.041531
     1386.000000       0.042375
     1386.100000       0.043279
     1386.200000       0.044211
     1386.300000       0.045159
     1386.400000       0.046128
     1386.500000       0.047117
     1386.600000       0.048125
     1386.700000       0.049154
     1386.800000       0.050202
     1386.900000       0.051273
     1387.000000       0.052354
     1387.100000       0.053443
     1387.200000       0.054543
     1387.300000       0.055655
     1387.400000       0.056788
     1387.500000       0.057940
     1387.600000       0.059112
     1387.700000       0.060305
     1387.800000       0.061529
     1387.900000       0.062783
     1388.000000       0.064104
     1388.100000       0.065477
     1388.200000       0.066888
     1388.300000       0.068333
     1388.400000       0.069811
     1388.500000       0.071314
     1388.600000       0.072840
     1388.700000       0.074374
     1388.800000       0.075892
     1388.900000       0.077428
     1389.000000       0.079000
     1389.100000       0.080606
     1389.200000       0.082242
     1389.300000       0.083931
     1389.400000       0.085686
     1389.500000       0.087486
     1389.600000       0.089327
     1389.700000       0.091212
     1389.800000       0.093141
     1389.900000       0.095120
     1390.000000       0.097161
     1390.100000       0.099257
     1390.200000       0.101405
     1390.300000       0.103582
     1390.400000       0.105793
     1390.500000       0.108039
     1390.600000       0.110313
     1390.700000       0.112624
     1390.800000       0.114969
     1390.900000       0.117338
     1391.000000       0.119736
     1391.100000       0.122169
     1391.200000       0.124641
     1391.300000       0.127156
     1391.400000       0.129714
     1391.500000       0.132313
     1391.600000       0.134957
     1391.700000       0.137644
     1391.800000       0.140379
     1391.900000       0.143163
     1392.000000       0.145995
     1392.100000       0.148888
     1392.200000       0.151833
     1392.300000       0.154827
     1392.400000       0.157869
     1392.500000       0.160970
     1392.600000       0.164117
     1392.700000       0.167318
     1392.800000       0.170571
     1392.900000       0.173876
     1393.000000       0.177241
     1393.100000       0.180667
     1393.200000       0.184153
     1393.300000       0.187698
     1393.400000       0.191294
     1393.500000       0.194941
     1393.600000       0.198630
     1393.700000       0.202365
     1393.800000       0.206145
     1393.900000       0.209971
     1394.000000       0.213852
     1394.100000       0.217784
     1394.200000       0.221764
     1394.300000       0.225782
     1394.400000       0.229852
     1394.500000       0.233964
     1394.600000       0.238143
     1394.700000       0.242372
     1394.800000       0.246678
     1394.900000       0.251043
     1395.000000       0.255499
     1395.100000       0.260015
     1395.200000       0.264597
     1395.300000       0.269241
     1395.400000       0.273946
     1395.500000       0.278710
     1395.600000       0.283534
     1395.700000       0.288412
     1395.800000       0.293347
     1395.900000       0.298329
     1396.000000       0.303359
     1396.100000       0.308428
     1396.200000       0.313537
     1396.300000       0.318683
     1396.400000       0.323863
     1396.500000       0.329067
     1396.600000       0.334298
     1396.700000       0.339549
     1396.800000       0.344818
     1396.900000       0.350114
     1397.000000       0.355441
     1397.100000       0.360807
     1397.200000       0.366220
     1397.300000       0.371667
     1397.400000       0.377140
     1397.500000       0.382638
     1397.600000       0.388161
     1397.700000       0.393711
     1397.800000       0.399288
     1397.900000       0.404893
     1398.000000       0.410523
     1398.100000       0.416171
     1398.200000       0.421837
     1398.300000       0.427517
     1398.400000       0.433206
     1398.500000       0.438905
     1398.600000       0.444610
     1398.700000       0.450321
     1398.800000       0.456029
     1398.900000       0.461726
     1399.000000       0.467418
     1399.100000       0.473103
     1399.200000       0.478776
     1399.300000       0.484430
     1399.400000       0.490072
     1399.500000       0.495699
     1399.600000       0.501309
     1399.700000       0.506902
     1399.800000       0.512474
     1399.900000       0.518022
     1400.000000       0.523545
     1400.100000       0.529037
     1400.200000       0.534500
     1400.300000       0.539936
     1400.400000       0.545348
     1400.500000       0.550735
     1400.600000       0.556093
     1400.700000       0.561422
     1400.800000       0.566716
     1400.900000       0.571970
     1401.000000       0.577174
     1401.100000       0.582332
     1401.200000       0.587459
     1401.300000       0.592554
     1401.400000       0.597620
     1401.500000       0.602655
     1401.600000       0.607650
     1401.700000       0.612594
     1401.800000       0.617474
     1401.900000       0.622302
     1402.000000       0.627079
     1402.100000       0.631802
     1402.200000       0.636474
     1402.300000       0.641103
     1402.400000       0.645694
     1402.500000       0.650247
     1402.600000       0.654760
     1402.700000       0.659231
     1402.800000       0.663651
     1402.900000       0.668021
     1403.000000       0.672338
     1403.100000       0.676609
     1403.200000       0.680813
     1403.300000       0.684967
     1403.400000       0.689060
     1403.500000       0.693101
     1403.600000       0.697072
     1403.700000       0.700983
     1403.800000       0.704801
     1403.900000       0.708554
     1404.000000       0.712231
     1404.100000       0.715862
     1404.200000       0.719431
     1404.300000       0.722946
     1404.400000       0.726409
     1404.500000       0.729814
     1404.600000       0.733155
     1404.700000       0.736433
     1404.800000       0.739645
     1404.900000       0.742799
     1405.000000       0.745897
     1405.100000       0.748945
     1405.200000       0.751942
     1405.300000       0.754897
     1405.400000       0.757794
     1405.500000       0.760640
     1405.600000       0.763420
     1405.700000       0.766150
     1405.800000       0.768820
     1405.900000       0.771445
     1406.000000       0.774014
     1406.100000       0.776535
     1406.200000       0.778984
     1406.300000       0.781374
     1406.400000       0.783708
     1406.500000       0.785984
     1406.600000       0.788202
     1406.700000       0.790369
     1406.800000       0.792488
     1406.900000       0.794558
     1407.000000       0.796581
     1407.100000       0.798554
     1407.200000       0.800477
     1407.300000       0.802350
     1407.400000       0.804173
     1407.500000       0.805956
     1407.600000       0.807675
     1407.700000       0.809364
     1407.800000       0.811035
     1407.900000       0.812715
     1408.000000       0.814391
     1408.100000       0.816040
     1408.200000       0.817659
     1408.300000       0.819258
     1408.400000       0.820840
     1408.500000       0.822433
     1408.600000       0.824046
     1408.700000       0.825668
     1408.800000       0.827301
     1408.900000       0.828938
     1409.000000       0.830580
     1409.100000       0.832220
     1409.200000       0.833855
     1409.300000       0.835470
     1409.400000       0.837063
     1409.500000       0.838617
     1409.600000       0.840132
     1409.700000       0.841607
     1409.800000       0.843081
     1409.900000       0.844725
     1410.000000       0.846550
     1410.100000       0.848515
     1410.200000       0.850592
     1410.300000       0.852642
     1410.400000       0.854667
     1410.500000       0.856654
     1410.600000       0.858605
     1410.700000       0.860496
     1410.800000       0.862338
     1410.900000       0.864130
     1411.000000       0.865875
     1411.100000       0.867582
     1411.200000       0.869252
     1411.300000       0.870889
     1411.400000       0.872496
     1411.500000       0.874092
     1411.600000       0.875677
     1411.700000       0.877249
     1411.800000       0.878812
     1411.900000       0.880367
     1412.000000       0.881915
     1412.100000       0.883463
     1412.200000       0.885009
     1412.300000       0.886544
     1412.400000       0.888069
     1412.500000       0.889575
     1412.600000       0.891063
     1412.700000       0.892541
     1412.800000       0.894007
     1412.900000       0.895458
     1413.000000       0.896892
     1413.100000       0.898302
     1413.200000       0.899693
     1413.300000       0.901073
     1413.400000       0.902443
     1413.500000       0.903803
     1413.600000       0.905155
     1413.700000       0.906490
     1413.800000       0.907813
     1413.900000       0.909123
     1414.000000       0.910423
     1414.100000       0.911714
     1414.200000       0.913004
     1414.300000       0.914317
     1414.400000       0.915643
     1414.500000       0.916957
     1414.600000       0.918258
     1414.700000       0.919533
     1414.800000       0.920792
     1414.900000       0.922061
     1415.000000       0.923334
     1415.100000       0.924605
     1415.200000       0.925868
     1415.300000       0.927110
     1415.400000       0.928335
     1415.500000       0.929539
     1415.600000       0.930718
     1415.700000       0.931870
     1415.800000       0.933002
     1415.900000       0.934123
     1416.000000       0.935234
     1416.100000       0.936345
     1416.200000       0.937453
     1416.300000       0.938557
     1416.400000       0.939659
     1416.500000       0.940729
     1416.600000       0.941772
     1416.700000       0.942803
     1416.800000       0.943820
     1416.900000       0.944840
     1417.000000       0.945864
     1417.100000       0.946908
     1417.200000       0.947953
     1417.300000       0.948887
     1417.400000       0.949761
     1417.500000       0.950648
     1417.600000       0.951544
     1417.700000       0.952458
     1417.800000       0.953383
     1417.900000       0.954284
     1418.000000       0.955166
     1418.100000       0.956012
     1418.200000       0.956827
     1418.300000       0.957629
     1418.400000       0.958418
     1418.500000       0.959233
     1418.600000       0.960076
     1418.700000       0.960937
     1418.800000       0.961806
     1418.900000       0.962590
     1419.000000       0.963309
     1419.100000       0.963959
     1419.200000       0.964553
     1419.300000       0.965178
     1419.400000       0.965848
     1419.500000       0.966599
     1419.600000       0.967433
     1419.700000       0.968293
     1419.800000       0.969175
     1419.900000       0.969957
     1420.000000       0.970657
     1420.100000       0.971178
     1420.200000       0.971565
     1420.300000       0.971996
     1420.400000       0.972477
     1420.500000       0.973114
     1420.600000       0.973986
     1420.700000       0.974891
     1420.800000       0.975826
     1420.900000       0.976686
     1421.000000       0.977455
     1421.100000       0.978189
     1421.200000       0.978889
     1421.300000       0.979658
     1421.400000       0.980534
     1421.500000       0.981539
     1421.600000       0.982733
     1421.700000       0.983909
     1421.800000       0.985057
     1421.900000       0.985983
     1422.000000       0.986639
     1422.100000       0.987287
     1422.200000       0.987938
     1422.300000       0.988702
     1422.400000       0.989668
     1422.500000       0.990725
     1422.600000       0.991888
     1422.700000       0.993001
     1422.800000       0.994027
     1422.900000       0.994915
     1423.000000       0.995606
     1423.100000       0.996232
     1423.200000       0.996796
     1423.300000       0.997390
     1423.400000       0.998168
     1423.500000       0.998913
     1423.600000       0.999656
     1423.700000       1.000000
     1423.800000       0.999997
     1423.900000       0.999989
     1424.000000       0.999628
     1424.100000       0.999093
     1424.200000       0.998631
     1424.300000       0.998263
     1424.400000       0.998121
     1424.500000       0.998061
     1424.600000       0.998128
     1424.700000       0.998201
     1424.800000       0.998147
     1424.900000       0.998039
     1425.000000       0.997913
     1425.100000       0.997786
     1425.200000       0.997792
     1425.300000       0.997886
     1425.400000       0.997961
     1425.500000       0.997968
     1425.600000       0.997885
     1425.700000       0.997653
     1425.800000       0.997332
     1425.900000       0.996886
     1426.000000       0.996432
     1426.100000       0.995948
     1426.200000       0.995475
     1426.300000       0.994987
     1426.400000       0.994370
     1426.500000       0.993668
     1426.600000       0.993131
     1426.700000       0.992730
     1426.800000       0.992729
     1426.900000       0.992898
     1427.000000       0.993140
     1427.100000       0.993335
     1427.200000       0.993255
     1427.300000       0.992817
     1427.400000       0.992185
     1427.500000       0.990979
     1427.600000       0.989654
     1427.700000       0.988154
     1427.800000       0.986736
     1427.900000       0.985427
     1428.000000       0.984058
     1428.100000       0.982601
     1428.200000       0.981174
     1428.300000       0.979742
     1428.400000       0.978659
     1428.500000       0.977838
     1428.600000       0.977399
     1428.700000       0.977214
     1428.800000       0.977022
     1428.900000       0.976766
     1429.000000       0.976405
     1429.100000       0.975563
     1429.200000       0.974478
     1429.300000       0.973150
     1429.400000       0.972056
     1429.500000       0.971420
     1429.600000       0.971102
     1429.700000       0.970989
     1429.800000       0.970897
     1429.900000       0.970419
     1430.000000       0.969624
     1430.100000       0.968593
     1430.200000       0.967462
     1430.300000       0.966431
     1430.400000       0.965686
     1430.500000       0.965459
     1430.600000       0.965354
     1430.700000       0.965515
     1430.800000       0.965778
     1430.900000       0.965587
     1431.000000       0.964951
     1431.100000       0.963958
     1431.200000       0.962831
     1431.300000       0.962099
     1431.400000       0.961563
     1431.500000       0.961225
     1431.600000       0.960982
     1431.700000       0.960589
     1431.800000       0.960000
     1431.900000       0.959162
     1432.000000       0.958073
     1432.100000       0.956919
     1432.200000       0.955775
     1432.300000       0.955252
     1432.400000       0.954993
     1432.500000       0.954992
     1432.600000       0.955309
     1432.700000       0.955367
     1432.800000       0.954851
     1432.900000       0.954305
     1433.000000       0.953702
     1433.100000       0.953404
     1433.200000       0.953399
     1433.300000       0.953455
     1433.400000       0.953681
     1433.500000       0.953806
     1433.600000       0.953496
     1433.700000       0.952900
     1433.800000       0.951654
     1433.900000       0.950089
     1434.000000       0.948543
     1434.100000       0.947190
     1434.200000       0.946401
     1434.300000       0.945784
     1434.400000       0.945272
     1434.500000       0.944798
     1434.600000       0.944273
     1434.700000       0.943730
     1434.800000       0.943202
     1434.900000       0.942691
     1435.000000       0.942250
     1435.100000       0.941856
     1435.200000       0.941498
     1435.300000       0.941166
     1435.400000       0.940799
     1435.500000       0.940398
     1435.600000       0.939973
     1435.700000       0.939524
     1435.800000       0.939068
     1435.900000       0.938601
     1436.000000       0.938134
     1436.100000       0.937667
     1436.200000       0.937217
     1436.300000       0.936782
     1436.400000       0.936358
     1436.500000       0.935948
     1436.600000       0.935539
     1436.700000       0.935130
     1436.800000       0.934706
     1436.900000       0.934260
     1437.000000       0.933795
     1437.100000       0.933302
     1437.200000       0.932801
     1437.300000       0.932304
     1437.400000       0.931811
     1437.500000       0.931332
     1437.600000       0.930852
     1437.700000       0.930343
     1437.800000       0.929808
     1437.900000       0.929231
     1438.000000       0.928633
     1438.100000       0.928045
     1438.200000       0.927472
     1438.300000       0.926969
     1438.400000       0.926545
     1438.500000       0.926226
     1438.600000       0.925955
     1438.700000       0.925641
     1438.800000       0.925266
     1438.900000       0.924836
     1439.000000       0.924341
     1439.100000       0.923872
     1439.200000       0.923431
     1439.300000       0.923005
     1439.400000       0.922596
     1439.500000       0.922177
     1439.600000       0.921746
     1439.700000       0.921299
     1439.800000       0.920829
     1439.900000       0.920354
     1440.000000       0.919887
     1440.100000       0.919426
     1440.200000       0.918970
     1440.300000       0.918516
     1440.400000       0.918063
     1440.500000       0.917606
     1440.600000       0.917134
     1440.700000       0.916648
     1440.800000       0.916141
     1440.900000       0.915616
     1441.000000       0.915063
     1441.100000       0.914482
     1441.200000       0.913875
     1441.300000       0.913236
     1441.400000       0.912547
     1441.500000       0.911806
     1441.600000       0.911013
     1441.700000       0.910163
     1441.800000       0.909278
     1441.900000       0.908355
     1442.000000       0.907417
     1442.100000       0.906463
     1442.200000       0.905513
     1442.300000       0.904569
     1442.400000       0.903640
     1442.500000       0.902737
     1442.600000       0.901913
     1442.700000       0.901200
     1442.800000       0.900839
     1442.900000       0.900909
     1443.000000       0.901162
     1443.100000       0.901880
     1443.200000       0.902967
     1443.300000       0.904206
     1443.400000       0.905644
     1443.500000       0.907084
     1443.600000       0.908635
     1443.700000       0.910530
     1443.800000       0.912712
     1443.900000       0.914881
     1444.000000       0.917048
     1444.100000       0.918920
     1444.200000       0.920567
     1444.300000       0.922077
     1444.400000       0.923466
     1444.500000       0.924789
     1444.600000       0.926077
     1444.700000       0.927321
     1444.800000       0.928515
     1444.900000       0.929687
     1445.000000       0.930830
     1445.100000       0.931966
     1445.200000       0.933120
     1445.300000       0.934288
     1445.400000       0.935472
     1445.500000       0.936657
     1445.600000       0.937834
     1445.700000       0.938994
     1445.800000       0.940126
     1445.900000       0.941225
     1446.000000       0.942279
     1446.100000       0.943288
     1446.200000       0.944239
     1446.300000       0.945140
     1446.400000       0.946004
     1446.500000       0.946833
     1446.600000       0.947644
     1446.700000       0.948433
     1446.800000       0.949205
     1446.900000       0.949965
     1447.000000       0.950720
     1447.100000       0.951473
     1447.200000       0.952240
     1447.300000       0.953000
     1447.400000       0.953759
     1447.500000       0.954514
     1447.600000       0.955264
     1447.700000       0.956005
     1447.800000       0.956738
     1447.900000       0.957459
     1448.000000       0.958167
     1448.100000       0.958858
     1448.200000       0.959534
     1448.300000       0.960190
     1448.400000       0.960820
     1448.500000       0.961413
     1448.600000       0.961974
     1448.700000       0.962494
     1448.800000       0.962978
     1448.900000       0.963430
     1449.000000       0.963851
     1449.100000       0.964246
     1449.200000       0.964615
     1449.300000       0.964969
     1449.400000       0.965303
     1449.500000       0.965624
     1449.600000       0.965928
     1449.700000       0.966214
     1449.800000       0.966481
     1449.900000       0.966727
     1450.000000       0.966951
     1450.100000       0.967157
     1450.200000       0.967343
     1450.300000       0.967504
     1450.400000       0.967626
     1450.500000       0.967718
     1450.600000       0.967748
     1450.700000       0.967762
     1450.800000       0.967751
     1450.900000       0.967673
     1451.000000       0.967569
     1451.100000       0.967416
     1451.200000       0.967232
     1451.300000       0.967006
     1451.400000       0.966759
     1451.500000       0.966482
     1451.600000       0.966181
     1451.700000       0.965855
     1451.800000       0.965504
     1451.900000       0.965129
     1452.000000       0.964734
     1452.100000       0.964317
     1452.200000       0.963878
     1452.300000       0.963405
     1452.400000       0.962906
     1452.500000       0.962379
     1452.600000       0.961822
     1452.700000       0.961244
     1452.800000       0.960642
     1452.900000       0.960023
     1453.000000       0.959386
     1453.100000       0.958738
     1453.200000       0.958079
     1453.300000       0.957417
     1453.400000       0.956756
     1453.500000       0.956106
     1453.600000       0.955474
     1453.700000       0.954856
     1453.800000       0.954256
     1453.900000       0.953665
     1454.000000       0.953090
     1454.100000       0.952528
     1454.200000       0.951975
     1454.300000       0.951425
     1454.400000       0.950870
     1454.500000       0.950309
     1454.600000       0.949734
     1454.700000       0.949145
     1454.800000       0.948534
     1454.900000       0.947899
     1455.000000       0.947235
     1455.100000       0.946537
     1455.200000       0.945814
     1455.300000       0.945063
     1455.400000       0.944293
     1455.500000       0.943512
     1455.600000       0.942711
     1455.700000       0.941874
     1455.800000       0.941021
     1455.900000       0.940149
     1456.000000       0.939262
     1456.100000       0.938360
     1456.200000       0.937453
     1456.300000       0.936538
     1456.400000       0.935615
     1456.500000       0.934684
     1456.600000       0.933744
     1456.700000       0.932800
     1456.800000       0.931852
     1456.900000       0.930898
     1457.000000       0.929938
     1457.100000       0.928972
     1457.200000       0.927998
     1457.300000       0.927013
     1457.400000       0.926014
     1457.500000       0.925002
     1457.600000       0.923976
     1457.700000       0.922938
     1457.800000       0.921886
     1457.900000       0.920828
     1458.000000       0.919799
     1458.100000       0.918792
     1458.200000       0.917819
     1458.300000       0.916888
     1458.400000       0.915965
     1458.500000       0.915035
     1458.600000       0.914103
     1458.700000       0.913176
     1458.800000       0.912234
     1458.900000       0.911281
     1459.000000       0.910273
     1459.100000       0.909148
     1459.200000       0.907942
     1459.300000       0.906691
     1459.400000       0.905387
     1459.500000       0.904052
     1459.600000       0.902678
     1459.700000       0.901266
     1459.800000       0.899813
     1459.900000       0.898318
     1460.000000       0.896779
     1460.100000       0.895207
     1460.200000       0.893593
     1460.300000       0.891962
     1460.400000       0.890322
     1460.500000       0.888690
     1460.600000       0.887079
     1460.700000       0.885501
     1460.800000       0.883969
     1460.900000       0.882489
     1461.000000       0.881077
     1461.100000       0.879730
     1461.200000       0.878473
     1461.300000       0.877293
     1461.400000       0.876206
     1461.500000       0.875199
     1461.600000       0.874293
     1461.700000       0.873474
     1461.800000       0.872730
     1461.900000       0.872056
     1462.000000       0.871418
     1462.100000       0.870806
     1462.200000       0.870208
     1462.300000       0.869613
     1462.400000       0.869018
     1462.500000       0.868402
     1462.600000       0.867775
     1462.700000       0.867102
     1462.800000       0.866396
     1462.900000       0.865646
     1463.000000       0.864852
     1463.100000       0.864025
     1463.200000       0.863160
     1463.300000       0.862277
     1463.400000       0.861375
     1463.500000       0.860466
     1463.600000       0.859554
     1463.700000       0.858650
     1463.800000       0.857765
     1463.900000       0.856904
     1464.000000       0.856081
     1464.100000       0.855290
     1464.200000       0.854532
     1464.300000       0.853805
     1464.400000       0.853108
     1464.500000       0.852439
     1464.600000       0.851794
     1464.700000       0.851182
     1464.800000       0.850596
     1464.900000       0.850032
     1465.000000       0.849475
     1465.100000       0.848925
     1465.200000       0.848378
     1465.300000       0.847832
     1465.400000       0.847287
     1465.500000       0.846741
     1465.600000       0.846197
     1465.700000       0.845661
     1465.800000       0.845132
     1465.900000       0.844621
     1466.000000       0.844126
     1466.100000       0.843650
     1466.200000       0.843191
     1466.300000       0.842758
     1466.400000       0.842350
     1466.500000       0.841969
     1466.600000       0.841617
     1466.700000       0.841285
     1466.800000       0.840970
     1466.900000       0.840666
     1467.000000       0.840370
     1467.100000       0.840086
     1467.200000       0.839806
     1467.300000       0.839528
     1467.400000       0.839250
     1467.500000       0.838970
     1467.600000       0.838680
     1467.700000       0.838379
     1467.800000       0.838063
     1467.900000       0.837729
     1468.000000       0.837383
     1468.100000       0.837029
     1468.200000       0.836668
     1468.300000       0.836304
     1468.400000       0.835937
     1468.500000       0.835574
     1468.600000       0.835214
     1468.700000       0.834859
     1468.800000       0.834509
     1468.900000       0.834159
     1469.000000       0.833810
     1469.100000       0.833456
     1469.200000       0.833094
     1469.300000       0.832721
     1469.400000       0.832338
     1469.500000       0.831947
     1469.600000       0.831529
     1469.700000       0.831088
     1469.800000       0.830615
     1469.900000       0.830108
     1470.000000       0.829568
     1470.100000       0.828993
     1470.200000       0.828383
     1470.300000       0.827736
     1470.400000       0.827053
     1470.500000       0.826330
     1470.600000       0.825570
     1470.700000       0.824772
     1470.800000       0.823937
     1470.900000       0.823066
     1471.000000       0.822155
     1471.100000       0.821202
     1471.200000       0.820206
     1471.300000       0.819168
     1471.400000       0.818072
     1471.500000       0.816908
     1471.600000       0.815700
     1471.700000       0.814429
     1471.800000       0.813086
     1471.900000       0.811672
     1472.000000       0.810179
     1472.100000       0.808611
     1472.200000       0.806967
     1472.300000       0.805248
     1472.400000       0.803461
     1472.500000       0.801602
     1472.600000       0.799678
     1472.700000       0.797685
     1472.800000       0.795624
     1472.900000       0.793491
     1473.000000       0.791288
     1473.100000       0.789008
     1473.200000       0.786660
     1473.300000       0.784231
     1473.400000       0.781742
     1473.500000       0.779185
     1473.600000       0.776569
     1473.700000       0.773883
     1473.800000       0.771134
     1473.900000       0.768300
     1474.000000       0.765384
     1474.100000       0.762375
     1474.200000       0.759268
     1474.300000       0.756056
     1474.400000       0.752737
     1474.500000       0.749293
     1474.600000       0.745715
     1474.700000       0.741992
     1474.800000       0.738104
     1474.900000       0.734054
     1475.000000       0.729851
     1475.100000       0.725491
     1475.200000       0.721007
     1475.300000       0.716385
     1475.400000       0.711647
     1475.500000       0.706814
     1475.600000       0.701919
     1475.700000       0.696950
     1475.800000       0.691929
     1475.900000       0.686867
     1476.000000       0.681762
     1476.100000       0.676616
     1476.200000       0.671430
     1476.300000       0.666177
     1476.400000       0.660860
     1476.500000       0.655477
     1476.600000       0.650024
     1476.700000       0.644522
     1476.800000       0.638971
     1476.900000       0.633379
     1477.000000       0.627747
     1477.100000       0.622076
     1477.200000       0.616358
     1477.300000       0.610591
     1477.400000       0.604762
     1477.500000       0.598885
     1477.600000       0.592945
     1477.700000       0.586944
     1477.800000       0.580885
     1477.900000       0.574758
     1478.000000       0.568590
     1478.100000       0.562369
     1478.200000       0.556099
     1478.300000       0.549774
     1478.400000       0.543418
     1478.500000       0.537025
     1478.600000       0.530602
     1478.700000       0.524159
     1478.800000       0.517697
     1478.900000       0.511236
     1479.000000       0.504775
     1479.100000       0.498322
     1479.200000       0.491885
     1479.300000       0.485468
     1479.400000       0.479078
     1479.500000       0.472713
     1479.600000       0.466378
     1479.700000       0.460067
     1479.800000       0.453776
     1479.900000       0.447504
     1480.000000       0.441249
     1480.100000       0.435009
     1480.200000       0.428769
     1480.300000       0.422533
     1480.400000       0.416306
     1480.500000       0.410098
     1480.600000       0.403886
     1480.700000       0.397654
     1480.800000       0.391415
     1480.900000       0.385188
     1481.000000       0.378964
     1481.100000       0.372732
     1481.200000       0.366492
     1481.300000       0.360286
     1481.400000       0.354112
     1481.500000       0.347991
     1481.600000       0.341930
     1481.700000       0.335925
     1481.800000       0.329971
     1481.900000       0.324079
     1482.000000       0.318272
     1482.100000       0.312542
     1482.200000       0.306905
     1482.300000       0.301356
     1482.400000       0.295878
     1482.500000       0.290461
     1482.600000       0.285085
     1482.700000       0.279770
     1482.800000       0.274496
     1482.900000       0.269268
     1483.000000       0.264072
     1483.100000       0.258921
     1483.200000       0.253800
     1483.300000       0.248722
     1483.400000       0.243683
     1483.500000       0.238692
     1483.600000       0.233747
     1483.700000       0.228863
     1483.800000       0.224038
     1483.900000       0.219288
     1484.000000       0.214617
     1484.100000       0.210031
     1484.200000       0.205547
     1484.300000       0.201158
     1484.400000       0.196874
     1484.500000       0.192693
     1484.600000       0.188621
     1484.700000       0.184641
     1484.800000       0.180735
     1484.900000       0.176924
     1485.000000       0.173189
     1485.100000       0.169538
     1485.200000       0.165949
     1485.300000       0.162428
     1485.400000       0.158973
     1485.500000       0.155585
     1485.600000       0.152263
     1485.700000       0.149000
     1485.800000       0.145794
     1485.900000       0.142647
     1486.000000       0.139553
     1486.100000       0.136518
     1486.200000       0.133546
     1486.300000       0.130631
     1486.400000       0.127769
     1486.500000       0.124958
     1486.600000       0.122192
     1486.700000       0.119475
     1486.800000       0.116808
     1486.900000       0.114191
     1487.000000       0.111619
     1487.100000       0.109105
     1487.200000       0.106644
     1487.300000       0.104251
     1487.400000       0.101907
     1487.500000       0.099626
     1487.600000       0.097403
     1487.700000       0.095251
     1487.800000       0.093169
     1487.900000       0.091134
     1488.000000       0.089141
     1488.100000       0.087190
     1488.200000       0.085280
     1488.300000       0.083404
     1488.400000       0.081558
     1488.500000       0.079741
     1488.600000       0.077951
     1488.700000       0.076188
     1488.800000       0.074447
     1488.900000       0.072738
     1489.000000       0.071068
     1489.100000       0.069434
     1489.200000       0.067840
     1489.300000       0.066307
     1489.400000       0.064815
     1489.500000       0.063377
     1489.600000       0.061973
     1489.700000       0.060603
     1489.800000       0.059267
     1489.900000       0.057959
     1490.000000       0.056678
     1490.100000       0.055422
     1490.200000       0.054190
     1490.300000       0.052983
     1490.400000       0.051803
     1490.500000       0.050647
     1490.600000       0.049509
     1490.700000       0.048389
     1490.800000       0.047279
     1490.900000       0.046178
     1491.000000       0.045090
     1491.100000       0.044021
     1491.200000       0.042969
     1491.300000       0.041937
     1491.400000       0.040923
     1491.500000       0.039935
     1491.600000       0.038971
     1491.700000       0.038047
     1491.800000       0.037161
     1491.900000       0.036303
     1492.000000       0.035471
     1492.100000       0.034663
     1492.200000       0.033880
     1492.300000       0.033119
     1492.400000       0.032382
     1492.500000       0.031666
     1492.600000       0.030965
     1492.700000       0.030283
     1492.800000       0.029616
     1492.900000       0.028960
     1493.000000       0.028316
     1493.100000       0.027683
     1493.200000       0.027057
     1493.300000       0.026439
     1493.400000       0.025829
     1493.500000       0.025228
     1493.600000       0.024633
     1493.700000       0.024048
     1493.800000       0.023473
     1493.900000       0.022907
     1494.000000       0.022357
     1494.100000       0.021821
     1494.200000       0.021303
     1494.300000       0.020803
     1494.400000       0.020324
     1494.500000       0.019863
     1494.600000       0.019421
     1494.700000       0.018998
     1494.800000       0.018591
     1494.900000       0.018199
     1495.000000       0.017819
     1495.100000       0.017448
     1495.200000       0.017084
     1495.300000       0.016726
     1495.400000       0.016373
     1495.500000       0.016021
     1495.600000       0.015671
     1495.700000       0.015323
     1495.800000       0.014976
     1495.900000       0.014630
     1496.000000       0.014287
     1496.100000       0.013947
     1496.200000       0.013611
     1496.300000       0.013281
     1496.400000       0.012958
     1496.500000       0.012643
     1496.600000       0.012339
     1496.700000       0.012044
     1496.800000       0.011761
     1496.900000       0.011489
     1497.000000       0.011228
     1497.100000       0.010980
     1497.200000       0.010741
     1497.300000       0.010511
     1497.400000       0.010290
     1497.500000       0.010073
     1497.600000       0.009862
     1497.700000       0.009650
     1497.800000       0.009438
     1497.900000       0.009225
     1498.000000       0.009010
     1498.100000       0.008794
     1498.200000       0.008577
     1498.300000       0.008358
     1498.400000       0.008140
     1498.500000       0.007922
     1498.600000       0.007707
     1498.700000       0.007496
     1498.800000       0.007292
     1498.900000       0.007096
     1499.000000       0.006909
     1499.100000       0.006733
     1499.200000       0.006568
     1499.300000       0.006415
     1499.400000       0.006272
     1499.500000       0.006138
     1499.600000       0.006013
     1499.700000       0.005894
     1499.800000       0.005780
     1499.900000       0.005670
     1500.000000       0.005560
     1500.100000       0.005451
     1500.200000       0.005339
     1500.300000       0.005223
     1500.400000       0.005103
     1500.500000       0.004978
     1500.600000       0.004849
     1500.700000       0.004715
     1500.800000       0.004579
     1500.900000       0.004444
     1501.000000       0.004310
     1501.100000       0.004180
     1501.200000       0.004053
     1501.300000       0.003934
     1501.400000       0.003820
     1501.500000       0.003715
     1501.600000       0.003618
     1501.700000       0.003529
     1501.800000       0.003449
     1501.900000       0.003375
     1502.000000       0.003306
     1502.100000       0.003243
     1502.200000       0.003181
     1502.300000       0.003120
     1502.400000       0.003059
     1502.500000       0.002996
     1502.600000       0.002930
     1502.700000       0.002860
     1502.800000       0.002787
     1502.900000       0.002711
     1503.000000       0.002632
     1503.100000       0.002551
     1503.200000       0.002470
     1503.300000       0.002389
     1503.400000       0.002311
     1503.500000       0.002234
     1503.600000       0.002164
     1503.700000       0.002097
     1503.800000       0.002037
     1503.900000       0.001984
     1504.000000       0.001936
     1504.100000       0.001894
     1504.200000       0.001856
     1504.300000       0.001822
     1504.400000       0.001789
     1504.500000       0.001757
     1504.600000       0.001725
     1504.700000       0.001691
     1504.800000       0.001654
     1504.900000       0.001614
     1505.000000       0.001570
     1505.100000       0.001522
     1505.200000       0.001470
     1505.300000       0.001414
     1505.400000       0.001357
     1505.500000       0.001297
     1505.600000       0.001240
     1505.700000       0.001191
     1505.800000       0.001130
     1505.900000       0.001001
     1506.000000       0.000865
     1506.100000       0.000814
     1506.200000       0.000784
     1506.300000       0.000759
     1506.400000       0.000738
     1506.500000       0.000722
     1506.600000       0.000710
     1506.700000       0.000700
     1506.800000       0.000692
     1506.900000       0.000684
     1507.000000       0.000674
     1507.100000       0.000663
     1507.200000       0.000648
     1507.300000       0.000628
     1507.400000       0.000605
     1507.500000       0.000577
     1507.600000       0.000546
     1507.700000       0.000513
     1507.800000       0.000478
     1507.900000       0.000443
     1508.000000       0.000409
     1508.100000       0.000378
     1508.200000       0.000349
     1508.300000       0.000324
     1508.400000       0.000303
     1508.500000       0.000286
     1508.600000       0.000274
     1508.700000       0.000266
     1508.800000       0.000262
     1508.900000       0.000260
     1509.000000       0.000259
     1509.100000       0.000259
     1509.200000       0.000259
     1509.300000       0.000256
     1509.400000       0.000250
     1509.500000       0.000240
     1509.600000       0.000222
     1509.700000       0.000200
     1509.800000       0.000170
     1509.900000       0.000136
     1510.000000       0.000101
     1510.100000       0.000067
     1510.200000       0.000041
     1510.300000       0.000019
     1510.400000       0.000008
     1510.500000       0.000002
     1510.600000       0.000000
     1510.700000       0.000000
     1510.800000       0.000000
     1510.900000       0.000001
     1511.000000       0.000001
     1511.100000       0.000001
     1511.200000       0.000000
     1511.300000       0.000000
     1511.400000       0.000000
     1511.500000       0.000000
     1511.600000       0.000000
     1511.700000       0.000000
     1511.800000       0.000000
     1511.900000       0.000000
     1512.000000       0.000000
     1512.100000       0.000000
     1512.200000       0.000000
     1512.300000       0.000000
     1512.400000       0.000000
     1512.500000       0.000000
     1512.600000       0.000000
     1512.700000       0.000000
     1512.800000       0.000000
     1512.900000       0.000000
     1513.000000       0.000000
     1513.100000       0.000000
     1513.200000       0.000000
     1513.300000       0.000000
     1513.400000       0.000000
     1513.500000       0.000000
     1513.600000       0.000000
     1513.700000       0.000000
     1513.800000       0.000000
     1513.900000       0.000000
     1514.000000       0.000000
     1514.100000       0.000000
     1514.200000       0.000000
     1514.300000       0.000000
     1514.400000       0.000000
     1514.500000       0.000000
     1514.600000       0.000000
     1514.700000       0.000000
     1514.800000       0.000000
     1514.900000       0.000000
     1515.000000       0.000000
     1515.100000       0.000000
     1515.200000       0.000000
     1515.300000       0.000000
     1515.400000       0.000000
     1515.500000       0.000000
     1515.600000       0.000000
     1515.700000       0.000000
     1515.800000       0.000000
     1515.900000       0.000000
     1516.000000       0.000000
     1516.100000       0.000000
     1516.200000       0.000000
     1516.300000       0.000000
     1516.400000       0.000000
     1516.500000       0.000000
     1516.600000       0.000000
     1516.700000       0.000000
     1516.800000       0.000000
     1516.900000       0.000000
     1517.000000       0.000000
     1517.100000       0.000000
     1517.200000       0.000000
     1517.300000       0.000000
     1517.400000       0.000000
     1517.500000       0.000000
     1517.600000       0.000000
     1517.700000       0.000000
     1517.800000       0.000000
     1517.900000       0.000000
     1518.000000       0.000000
     1518.100000       0.000000
     1518.200000       0.000000
     1518.300000       0.000000
     1518.400000       0.000000
     1518.500000       0.000000
     1518.600000       0.000000
     1518.700000       0.000000
     1518.800000       0.000000
     1518.900000       0.000000
     1519.000000       0.000000
     1519.100000       0.000000
     1519.200000       0.000000
     1519.300000       0.000000
     1519.400000       0.000000
     1519.500000       0.000000
     1519.600000       0.000000
     1519.700000       0.000000
     1519.800000       0.000000
     1519.900000       0.000000
     1520.000000       0.000000
     1520.100000       0.000000
     1520.200000       0.000000
     1520.300000       0.000000
     1520.400000       0.000000
     1520.500000       0.000000
     1520.600000       0.000000
     1520.700000       0.000000
     1520.800000       0.000000
     1520.900000       0.000000
     1521.000000       0.000000
     1521.100000       0.000000
     1521.200000       0.000000
     1521.300000       0.000000
     1521.400000       0.000000
     1521.500000       0.000000
     1521.600000       0.000000
     1521.700000       0.000000
     1521.800000       0.000000
     1521.900000       0.000000
     1522.000000       0.000000
     1522.100000       0.000000
     1522.200000       0.000000
     1522.300000       0.000000
     1522.400000       0.000000
     1522.500000       0.000000
     1522.600000       0.000000
     1522.700000       0.000000
     1522.800000       0.000000
     1522.900000       0.000000
     1523.000000       0.000000
     1523.100000       0.000000
     1523.200000       0.000000
     1523.300000       0.000000
     1523.400000       0.000000
     1523.500000       0.000000
     1523.600000       0.000000
     1523.700000       0.000000
     1523.800000       0.000000
     1523.900000       0.000000
     1524.000000       0.000000
     1524.100000       0.000000
     1524.200000       0.000000
     1524.300000       0.000000
     1524.400000       0.000000
     1524.500000       0.000000
     1524.600000       0.000000
     1524.700000       0.000000
     1524.800000       0.000000
     1524.900000       0.000000
     1525.000000       0.000000
     1525.100000       0.000000
     1525.200000       0.000000
     1525.300000       0.000000
     1525.400000       0.000000
     1525.500000       0.000000
     1525.600000       0.000000
     1525.700000       0.000000
     1525.800000       0.000000
     1525.900000       0.000000
     1526.000000       0.000000
     1526.100000       0.000000
     1526.200000       0.000000
     1526.300000       0.000000
     1526.400000       0.000000
     1526.500000       0.000000
     1526.600000       0.000000
     1526.700000       0.000000
     1526.800000       0.000000
     1526.900000       0.000000
     1527.000000       0.000000
     1527.100000       0.000000
     1527.200000       0.000000
     1527.300000       0.000000
     1527.400000       0.000000
     1527.500000       0.000000
     1527.600000       0.000000
     1527.700000       0.000000
     1527.800000       0.000000
     1527.900000       0.000000
     1528.000000       0.000000
     1528.100000       0.000000
     1528.200000       0.000000
     1528.300000       0.000000
     1528.400000       0.000000
     1528.500000       0.000000
     1528.600000       0.000000
     1528.700000       0.000000
     1528.800000       0.000000
     1528.900000       0.000000
     1529.000000       0.000000
     1529.100000       0.000000
     1529.200000       0.000000
     1529.300000       0.000000
     1529.400000       0.000000
     1529.500000       0.000000
     1529.600000       0.000000
     1529.700000       0.000000
     1529.800000       0.000000
     1529.900000       0.000000
     1530.000000       0.000000
     1530.100000       0.000000
     1530.200000       0.000000
     1530.300000       0.000000
     1530.400000       0.000000
     1530.500000       0.000000
     1530.600000       0.000000
     1530.700000       0.000000
     1530.800000       0.000000
     1530.900000       0.000000
     1531.000000       0.000000
     1531.100000       0.000000
     1531.200000       0.000000
     1531.300000       0.000000
     1531.400000       0.000000
     1531.500000       0.000000
     1531.600000       0.000000
     1531.700000       0.000000
     1531.800000       0.000000
     1531.900000       0.000000
     1532.000000       0.000000
     1532.100000       0.000000
     1532.200000       0.000000
     1532.300000       0.000000
     1532.400000       0.000000
     1532.500000       0.000000
     1532.600000       0.000000
     1532.700000       0.000000
     1532.800000       0.000000
     1532.900000       0.000000
     1533.000000       0.000000
     1533.100000       0.000000
     1533.200000       0.000000
     1533.300000       0.000000
     1533.400000       0.000000
     1533.500000       0.000000
     1533.600000       0.000000
     1533.700000       0.000000
     1533.800000       0.000000
     1533.900000       0.000000
     1534.000000       0.000000
     1534.100000       0.000000
     1534.200000       0.000000
     1534.300000       0.000000
     1534.400000       0.000000
     1534.500000       0.000000
     1534.600000       0.000000
     1534.700000       0.000000
     1534.800000       0.000000
     1534.900000       0.000000
     1535.000000       0.000000
     1535.100000       0.000000
     1535.200000       0.000000
     1535.300000       0.000000
     1535.400000       0.000000
     1535.500000       0.000000
     1535.600000       0.000000
     1535.700000       0.000000
     1535.800000       0.000000
     1535.900000       0.000000
     1536.000000       0.000000
     1536.100000       0.000000
     1536.200000       0.000000
     1536.300000       0.000000
     1536.400000       0.000000
     1536.500000       0.000000
     1536.600000       0.000000
     1536.700000       0.000000
     1536.800000       0.000000
     1536.900000       0.000000
     1537.000000       0.000000
     1537.100000       0.000000
     1537.200000       0.000000
     1537.300000       0.000000
     1537.400000       0.000000
     1537.500000       0.000000
     1537.600000       0.000000
     1537.700000       0.000000
     1537.800000       0.000000
     1537.900000       0.000000
     1538.000000       0.000000
     1538.100000       0.000000
     1538.200000       0.000000
     1538.300000       0.000000
     1538.400000       0.000000
     1538.500000       0.000000
     1538.600000       0.000000
     1538.700000       0.000000
     1538.800000       0.000000
     1538.900000       0.000000
     1539.000000       0.000000
     1539.100000       0.000000
     1539.200000       0.000000
     1539.300000       0.000000
     1539.400000       0.000000
     1539.500000       0.000000
     1539.600000       0.000000
     1539.700000       0.000000
     1539.800000       0.000000
     1539.900000       0.000000
     1540.000000       0.000000
     1540.100000       0.000000
     1540.200000       0.000000
     1540.300000       0.000000
     1540.400000       0.000000
     1540.500000       0.000000
     1540.600000       0.000000
     1540.700000       0.000000
     1540.800000       0.000000
     1540.900000       0.000000
     1541.000000       0.000000
     1541.100000       0.000000
     1541.200000       0.000000
     1541.300000       0.000000
     1541.400000       0.000000
     1541.500000       0.000000
     1541.600000       0.000000
     1541.700000       0.000000
     1541.800000       0.000000
     1541.900000       0.000000
     1542.000000       0.000000
     1542.100000       0.000000
     1542.200000       0.000000
     1542.300000       0.000000
     1542.400000       0.000000
     1542.500000       0.000000
     1542.600000       0.000000
     1542.700000       0.000000
     1542.800000       0.000000
     1542.900000       0.000000
     1543.000000       0.000000
     1543.100000       0.000000
     1543.200000       0.000000
     1543.300000       0.000000
     1543.400000       0.000000
     1543.500000       0.000000
     1543.600000       0.000000
     1543.700000       0.000000
     1543.800000       0.000000
     1543.900000       0.000000
     1544.000000       0.000000
     1544.100000       0.000000
     1544.200000       0.000000
     1544.300000       0.000000
     1544.400000       0.000000
     1544.500000       0.000000
     1544.600000       0.000000
     1544.700000       0.000000
     1544.800000       0.000000
     1544.900000       0.000000
     1545.000000       0.000000
