   6  ,noaa_16_hirs_06.flt
Number of data points:
81
Wavenumber (cm-1)   Filter response
      711.000000       0.000000
      713.730000       0.012406
      714.050000       0.016364
      714.360000       0.019022
      714.730000       0.019052
      715.250000       0.023079
      715.570000       0.027108
      715.830000       0.029814
      716.140000       0.032542
      716.560000       0.033969
      716.880000       0.039415
      717.240000       0.048946
      717.820000       0.064035
      718.400000       0.081975
      718.920000       0.101400
      719.340000       0.119510
      719.760000       0.137730
      720.070000       0.151780
      720.390000       0.168610
      720.700000       0.189660
      720.960000       0.210730
      721.230000       0.236020
      721.590000       0.261560
      721.910000       0.291300
      722.380000       0.334030
      723.170000       0.411410
      723.790000       0.477790
      724.370000       0.538850
      725.000000       0.596260
      725.310000       0.628670
      725.730000       0.660200
      726.050000       0.687080
      726.470000       0.718740
      726.940000       0.746520
      727.310000       0.771180
      727.730000       0.796200
      728.250000       0.823310
      728.770000       0.841790
      729.400000       0.862300
      729.980000       0.878310
      730.500000       0.897070
      730.870000       0.910710
      731.450000       0.924040
      731.870000       0.935120
      732.500000       0.951840
      732.910000       0.967190
      733.280000       0.980820
      733.540000       0.991010
      733.910000       0.995750
      734.170000       1.000000
      734.590000       0.999020
      734.850000       0.994280
      735.170000       0.983770
      735.530000       0.967440
      735.800000       0.949070
      736.220000       0.913220
      736.690000       0.856210
      737.210000       0.774840
      737.630000       0.709440
      738.260000       0.589620
      738.730000       0.500700
      739.310000       0.414340
      739.830000       0.338960
      740.250000       0.284220
      740.720000       0.233780
      741.040000       0.195060
      741.350000       0.168740
      741.670000       0.145430
      742.140000       0.120560
      742.560000       0.095366
      742.980000       0.081246
      743.500000       0.067063
      744.130000       0.054400
      744.760000       0.043201
      745.330000       0.035086
      745.860000       0.028548
      746.490000       0.026980
      747.060000       0.023709
      747.220000       0.020366
      747.380000       0.017014
      751.000000       0.000000
