10,   channel TIR3 SRF from LSTM_ISRF_all_bands.xlsx
Number of data points:
1074
Wavenumber (cm-1)   Filter response
     1054.741061       0.000081
     1054.796688       0.000083
     1054.852321       0.000085
     1054.907959       0.000086
     1054.963604       0.000088
     1055.019254       0.000090
     1055.074910       0.000092
     1055.130572       0.000094
     1055.186240       0.000096
     1055.241914       0.000098
     1055.297594       0.000100
     1055.353280       0.000102
     1055.408971       0.000104
     1055.464668       0.000106
     1055.520372       0.000108
     1055.576081       0.000111
     1055.631796       0.000113
     1055.687516       0.000115
     1055.743243       0.000118
     1055.798976       0.000120
     1055.854714       0.000123
     1055.910459       0.000125
     1055.966209       0.000128
     1056.021965       0.000131
     1056.077727       0.000133
     1056.133495       0.000136
     1056.189269       0.000139
     1056.245049       0.000142
     1056.300834       0.000145
     1056.356626       0.000148
     1056.412423       0.000151
     1056.468227       0.000155
     1056.524036       0.000158
     1056.579851       0.000162
     1056.635672       0.000165
     1056.691499       0.000169
     1056.747332       0.000172
     1056.803170       0.000176
     1056.859015       0.000180
     1056.914866       0.000184
     1056.970722       0.000188
     1057.026584       0.000192
     1057.082452       0.000196
     1057.138327       0.000200
     1057.194207       0.000205
     1057.250093       0.000209
     1057.305984       0.000214
     1057.361882       0.000219
     1057.417786       0.000223
     1057.473695       0.000228
     1057.529611       0.000234
     1057.585532       0.000239
     1057.641460       0.000244
     1057.697393       0.000250
     1057.753332       0.000255
     1057.809277       0.000261
     1057.865228       0.000267
     1057.921185       0.000273
     1057.977148       0.000279
     1058.033116       0.000285
     1058.089091       0.000292
     1058.145072       0.000298
     1058.201058       0.000305
     1058.257051       0.000312
     1058.313049       0.000319
     1058.369053       0.000326
     1058.425064       0.000334
     1058.481080       0.000341
     1058.537102       0.000349
     1058.593130       0.000357
     1058.649164       0.000365
     1058.705204       0.000374
     1058.761249       0.000382
     1058.817301       0.000391
     1058.873359       0.000400
     1058.929422       0.000409
     1058.985492       0.000419
     1059.041567       0.000429
     1059.097649       0.000439
     1059.153736       0.000449
     1059.209829       0.000459
     1059.265929       0.000470
     1059.322034       0.000481
     1059.378145       0.000492
     1059.434262       0.000504
     1059.490385       0.000516
     1059.546514       0.000528
     1059.602649       0.000540
     1059.658790       0.000553
     1059.714937       0.000566
     1059.771089       0.000580
     1059.827248       0.000593
     1059.883413       0.000607
     1059.939583       0.000622
     1059.995760       0.000637
     1060.051943       0.000652
     1060.108131       0.000667
     1060.164325       0.000683
     1060.220526       0.000700
     1060.276732       0.000717
     1060.332945       0.000734
     1060.389163       0.000752
     1060.445387       0.000770
     1060.501617       0.000789
     1060.557853       0.000807
     1060.614096       0.000827
     1060.670344       0.000847
     1060.726598       0.000868
     1060.782858       0.000889
     1060.839124       0.000911
     1060.895396       0.000933
     1060.951674       0.000956
     1061.007958       0.000979
     1061.064247       0.001003
     1061.120543       0.001028
     1061.176845       0.001053
     1061.233153       0.001079
     1061.289467       0.001105
     1061.345786       0.001132
     1061.402112       0.001161
     1061.458444       0.001189
     1061.514782       0.001219
     1061.571125       0.001249
     1061.627475       0.001280
     1061.683831       0.001311
     1061.740192       0.001344
     1061.796560       0.001377
     1061.852933       0.001412
     1061.909313       0.001447
     1061.965699       0.001483
     1062.022090       0.001520
     1062.078488       0.001558
     1062.134891       0.001597
     1062.191301       0.001637
     1062.247716       0.001678
     1062.304138       0.001720
     1062.360565       0.001763
     1062.416999       0.001808
     1062.473438       0.001853
     1062.529884       0.001900
     1062.586335       0.001948
     1062.642793       0.001997
     1062.699256       0.002047
     1062.755726       0.002099
     1062.812201       0.002152
     1062.868683       0.002207
     1062.925170       0.002262
     1062.981664       0.002320
     1063.038163       0.002379
     1063.094669       0.002439
     1063.151180       0.002501
     1063.207698       0.002565
     1063.264221       0.002630
     1063.320751       0.002697
     1063.377286       0.002765
     1063.433828       0.002836
     1063.490375       0.002908
     1063.546929       0.002983
     1063.603489       0.003058
     1063.660054       0.003137
     1063.716626       0.003217
     1063.773204       0.003299
     1063.829787       0.003383
     1063.886377       0.003470
     1063.942973       0.003559
     1063.999574       0.003650
     1064.056182       0.003743
     1064.112796       0.003840
     1064.169416       0.003938
     1064.226042       0.004039
     1064.282673       0.004142
     1064.339311       0.004249
     1064.395955       0.004357
     1064.452605       0.004470
     1064.509261       0.004584
     1064.565923       0.004702
     1064.622591       0.004822
     1064.679265       0.004947
     1064.735945       0.005073
     1064.792632       0.005205
     1064.849324       0.005337
     1064.906022       0.005476
     1064.962726       0.005615
     1065.019437       0.005761
     1065.076153       0.005908
     1065.132875       0.006061
     1065.189604       0.006215
     1065.246338       0.006376
     1065.303079       0.006539
     1065.359825       0.006708
     1065.416578       0.006879
     1065.473337       0.007057
     1065.530101       0.007237
     1065.586872       0.007424
     1065.643649       0.007614
     1065.700432       0.007810
     1065.757221       0.008009
     1065.814015       0.008216
     1065.870816       0.008426
     1065.927624       0.008643
     1065.984437       0.008863
     1066.041256       0.009092
     1066.098081       0.009324
     1066.154912       0.009564
     1066.211750       0.009807
     1066.268593       0.010060
     1066.325443       0.010316
     1066.382298       0.010581
     1066.439160       0.010850
     1066.496027       0.011129
     1066.552901       0.011411
     1066.609781       0.011703
     1066.666667       0.011999
     1066.723559       0.012307
     1066.780457       0.012618
     1066.837361       0.012941
     1066.894271       0.013268
     1066.951187       0.013607
     1067.008109       0.013950
     1067.065038       0.014306
     1067.121972       0.014666
     1067.178913       0.015040
     1067.235859       0.015419
     1067.292812       0.015811
     1067.349771       0.016208
     1067.406735       0.016621
     1067.463706       0.017038
     1067.520683       0.017470
     1067.577666       0.017908
     1067.634655       0.018362
     1067.691651       0.018821
     1067.748652       0.019298
     1067.805659       0.019780
     1067.862673       0.020280
     1067.919692       0.020785
     1067.976718       0.021310
     1068.033750       0.021841
     1068.090788       0.022391
     1068.147832       0.022947
     1068.204882       0.023525
     1068.261938       0.024108
     1068.319000       0.024714
     1068.376068       0.025326
     1068.433143       0.025961
     1068.490223       0.026603
     1068.547310       0.027269
     1068.604403       0.027941
     1068.661501       0.028640
     1068.718606       0.029345
     1068.775717       0.030077
     1068.832835       0.030816
     1068.889958       0.031583
     1068.947087       0.032358
     1069.004223       0.033162
     1069.061364       0.033974
     1069.118512       0.034817
     1069.175666       0.035667
     1069.232825       0.036550
     1069.289991       0.037441
     1069.347164       0.038366
     1069.404342       0.039300
     1069.461526       0.040269
     1069.518717       0.041247
     1069.575913       0.042262
     1069.633116       0.043286
     1069.690325       0.044349
     1069.747540       0.045421
     1069.804761       0.046534
     1069.861988       0.047657
     1069.919221       0.048822
     1069.976461       0.049997
     1070.033706       0.051217
     1070.090958       0.052447
     1070.148216       0.053724
     1070.205479       0.055011
     1070.262750       0.056348
     1070.320026       0.057694
     1070.377308       0.059093
     1070.434596       0.060502
     1070.491891       0.061965
     1070.549192       0.063438
     1070.606499       0.064969
     1070.663812       0.066510
     1070.721131       0.068110
     1070.778456       0.069721
     1070.835787       0.071395
     1070.893125       0.073079
     1070.950469       0.074828
     1071.007818       0.076589
     1071.065174       0.078417
     1071.122536       0.080256
     1071.179905       0.082166
     1071.237279       0.084088
     1071.294660       0.086083
     1071.352046       0.088090
     1071.409439       0.090173
     1071.466838       0.092269
     1071.524243       0.094444
     1071.581655       0.096631
     1071.639072       0.098901
     1071.696496       0.101183
     1071.753925       0.103552
     1071.811361       0.105932
     1071.868803       0.108402
     1071.926251       0.110885
     1071.983706       0.113460
     1072.041166       0.116047
     1072.098633       0.118731
     1072.156106       0.121427
     1072.213585       0.124223
     1072.271070       0.127031
     1072.328561       0.129942
     1072.386059       0.132865
     1072.443563       0.135894
     1072.501073       0.138936
     1072.558589       0.142087
     1072.616111       0.145251
     1072.673639       0.148526
     1072.731174       0.151814
     1072.788714       0.155218
     1072.846261       0.158634
     1072.903814       0.162168
     1072.961373       0.165714
     1073.018939       0.169374
     1073.076510       0.173046
     1073.134088       0.176841
     1073.191672       0.180648
     1073.249262       0.184581
     1073.306858       0.188525
     1073.364461       0.192596
     1073.422070       0.196680
     1073.479684       0.200892
     1073.537305       0.205116
     1073.594933       0.209470
     1073.652566       0.213836
     1073.710206       0.218333
     1073.767851       0.222841
     1073.825503       0.227482
     1073.883162       0.232134
     1073.940826       0.236919
     1073.998496       0.241714
     1074.056173       0.246641
     1074.113856       0.251580
     1074.171545       0.256650
     1074.229241       0.261730
     1074.286942       0.266941
     1074.344650       0.272162
     1074.402364       0.277513
     1074.460084       0.282873
     1074.517810       0.288360
     1074.575543       0.293857
     1074.633281       0.299478
     1074.691026       0.305108
     1074.748777       0.310859
     1074.806535       0.316619
     1074.864298       0.322497
     1074.922068       0.328383
     1074.979844       0.334383
     1075.037626       0.340390
     1075.095415       0.346506
     1075.153209       0.352630
     1075.211010       0.358857
     1075.268817       0.365090
     1075.326630       0.371422
     1075.384450       0.377760
     1075.442276       0.384190
     1075.500108       0.390625
     1075.557946       0.397145
     1075.615790       0.403670
     1075.673641       0.410273
     1075.731497       0.416881
     1075.789360       0.423558
     1075.847230       0.430240
     1075.905105       0.436983
     1075.962987       0.443731
     1076.020875       0.450531
     1076.078769       0.457336
     1076.136669       0.464184
     1076.194576       0.471036
     1076.252489       0.477924
     1076.310408       0.484814
     1076.368333       0.491731
     1076.426265       0.498650
     1076.484203       0.505586
     1076.542147       0.512524
     1076.600097       0.519470
     1076.658053       0.526417
     1076.716016       0.533363
     1076.773985       0.540310
     1076.831960       0.547245
     1076.889942       0.554181
     1076.947930       0.561097
     1077.005924       0.568013
     1077.063924       0.574899
     1077.121930       0.581786
     1077.179943       0.588633
     1077.237962       0.595481
     1077.295987       0.602280
     1077.354019       0.609079
     1077.412056       0.615822
     1077.470100       0.622564
     1077.528150       0.629240
     1077.586207       0.635917
     1077.644270       0.642520
     1077.702339       0.649122
     1077.760414       0.655644
     1077.818495       0.662165
     1077.876583       0.668597
     1077.934677       0.675029
     1077.992777       0.681367
     1078.050884       0.687703
     1078.108997       0.693939
     1078.167116       0.700173
     1078.225241       0.706301
     1078.283373       0.712428
     1078.341511       0.718443
     1078.399655       0.724457
     1078.457805       0.730354
     1078.515962       0.736251
     1078.574125       0.742026
     1078.632294       0.747800
     1078.690470       0.753451
     1078.748652       0.759100
     1078.806840       0.764622
     1078.865034       0.770143
     1078.923235       0.775534
     1078.981442       0.780924
     1079.039655       0.786181
     1079.097874       0.791437
     1079.156100       0.796560
     1079.214332       0.801681
     1079.272570       0.806667
     1079.330815       0.811651
     1079.389066       0.816499
     1079.447323       0.821346
     1079.505586       0.826056
     1079.563856       0.830742
     1079.622132       0.835289
     1079.680415       0.839833
     1079.738703       0.844240
     1079.796998       0.848644
     1079.855299       0.852910
     1079.913607       0.857175
     1079.971921       0.861301
     1080.030241       0.865425
     1080.088567       0.869411
     1080.146900       0.873395
     1080.205239       0.877241
     1080.263584       0.881086
     1080.321936       0.884792
     1080.380294       0.888497
     1080.438658       0.892064
     1080.497029       0.895630
     1080.555405       0.899058
     1080.613789       0.902485
     1080.672178       0.905775
     1080.730574       0.909064
     1080.788976       0.912217
     1080.847384       0.915369
     1080.905799       0.918385
     1080.964220       0.921399
     1081.022647       0.924280
     1081.081081       0.927159
     1081.139521       0.929905
     1081.197967       0.932649
     1081.256420       0.935262
     1081.314879       0.937873
     1081.373344       0.940354
     1081.431816       0.942834
     1081.490294       0.945185
     1081.548778       0.947534
     1081.607268       0.949756
     1081.665765       0.951978
     1081.724268       0.954074
     1081.782778       0.956169
     1081.841294       0.958142
     1081.899816       0.960114
     1081.958345       0.961966
     1082.016879       0.963816
     1082.075421       0.965549
     1082.133968       0.967282
     1082.192522       0.968901
     1082.251082       0.970519
     1082.309649       0.972025
     1082.368222       0.973532
     1082.426801       0.974930
     1082.485386       0.976328
     1082.543978       0.977622
     1082.602577       0.978916
     1082.661181       0.980110
     1082.719792       0.981304
     1082.778409       0.982401
     1082.837033       0.983498
     1082.895663       0.984503
     1082.954299       0.985509
     1083.012942       0.986426
     1083.071591       0.987342
     1083.130246       0.988177
     1083.188908       0.989010
     1083.247576       0.989765
     1083.306251       0.990520
     1083.364931       0.991200
     1083.423619       0.991880
     1083.482312       0.992489
     1083.541012       0.993099
     1083.599718       0.993643
     1083.658431       0.994187
     1083.717150       0.994669
     1083.775875       0.995152
     1083.834607       0.995576
     1083.893345       0.996001
     1083.952089       0.996373
     1084.010840       0.996745
     1084.069597       0.997067
     1084.128361       0.997390
     1084.187131       0.997668
     1084.245907       0.997945
     1084.304690       0.998181
     1084.363479       0.998416
     1084.422274       0.998614
     1084.481076       0.998812
     1084.539884       0.998975
     1084.598698       0.999138
     1084.657519       0.999270
     1084.716347       0.999402
     1084.775180       0.999506
     1084.834020       0.999610
     1084.892867       0.999689
     1084.951720       0.999767
     1085.010579       0.999824
     1085.069444       0.999880
     1085.128316       0.999917
     1085.187195       0.999953
     1085.246080       0.999972
     1085.304971       0.999991
     1085.363868       0.999996
     1085.422772       1.000000
     1085.481682       0.999991
     1085.540599       0.999982
     1085.599522       0.999963
     1085.658452       0.999943
     1085.717388       0.999915
     1085.776330       0.999887
     1085.835279       0.999851
     1085.894234       0.999815
     1085.953195       0.999774
     1086.012163       0.999732
     1086.071138       0.999686
     1086.130118       0.999640
     1086.189106       0.999591
     1086.248099       0.999542
     1086.307099       0.999492
     1086.366105       0.999441
     1086.425118       0.999390
     1086.484137       0.999339
     1086.543163       0.999287
     1086.602195       0.999236
     1086.661233       0.999186
     1086.720278       0.999136
     1086.779329       0.999088
     1086.838387       0.999040
     1086.897451       0.998994
     1086.956522       0.998948
     1087.015599       0.998905
     1087.074682       0.998862
     1087.133772       0.998822
     1087.192868       0.998783
     1087.251971       0.998746
     1087.311080       0.998710
     1087.370195       0.998677
     1087.429317       0.998644
     1087.488445       0.998615
     1087.547580       0.998586
     1087.606721       0.998560
     1087.665869       0.998534
     1087.725023       0.998512
     1087.784184       0.998489
     1087.843351       0.998469
     1087.902524       0.998449
     1087.961704       0.998432
     1088.020890       0.998414
     1088.080083       0.998397
     1088.139282       0.998381
     1088.198487       0.998365
     1088.257699       0.998349
     1088.316918       0.998332
     1088.376143       0.998316
     1088.435374       0.998298
     1088.494612       0.998279
     1088.553856       0.998258
     1088.613107       0.998236
     1088.672364       0.998210
     1088.731628       0.998183
     1088.790898       0.998150
     1088.850174       0.998118
     1088.909457       0.998076
     1088.968747       0.998035
     1089.028042       0.997983
     1089.087345       0.997930
     1089.146654       0.997865
     1089.205969       0.997799
     1089.265291       0.997718
     1089.324619       0.997636
     1089.383953       0.997536
     1089.443294       0.997436
     1089.502642       0.997313
     1089.561996       0.997191
     1089.621357       0.997043
     1089.680724       0.996895
     1089.740097       0.996718
     1089.799477       0.996542
     1089.858863       0.996332
     1089.918256       0.996122
     1089.977655       0.995875
     1090.037061       0.995628
     1090.096474       0.995339
     1090.155892       0.995050
     1090.215318       0.994753
     1090.274749       0.994462
     1090.334187       0.994120
     1090.393632       0.993778
     1090.453083       0.993379
     1090.512541       0.992980
     1090.572005       0.992520
     1090.631476       0.992060
     1090.690953       0.991532
     1090.750436       0.991003
     1090.809926       0.990402
     1090.869423       0.989801
     1090.928926       0.989120
     1090.988436       0.988440
     1091.047952       0.987673
     1091.107474       0.986907
     1091.167003       0.986049
     1091.226539       0.985191
     1091.286081       0.984236
     1091.345629       0.983280
     1091.405184       0.982219
     1091.464746       0.981158
     1091.524314       0.979986
     1091.583888       0.978815
     1091.643469       0.977525
     1091.703057       0.976236
     1091.762651       0.974823
     1091.822251       0.973410
     1091.881858       0.971867
     1091.941472       0.970324
     1092.001092       0.968645
     1092.060719       0.966966
     1092.120352       0.965145
     1092.179991       0.963324
     1092.239637       0.961354
     1092.299290       0.959385
     1092.358949       0.957263
     1092.418615       0.955142
     1092.478287       0.952861
     1092.537966       0.950581
     1092.597651       0.948139
     1092.657343       0.945696
     1092.717041       0.943087
     1092.776746       0.940478
     1092.836457       0.937699
     1092.896175       0.934920
     1092.955899       0.931967
     1093.015630       0.929015
     1093.075368       0.925886
     1093.135111       0.922758
     1093.194862       0.919452
     1093.254619       0.916146
     1093.314383       0.912661
     1093.374153       0.909176
     1093.433929       0.905511
     1093.493712       0.901847
     1093.553502       0.898002
     1093.613298       0.894158
     1093.673101       0.890134
     1093.732910       0.886111
     1093.792726       0.881910
     1093.852549       0.877709
     1093.912378       0.873332
     1093.972213       0.868955
     1094.032055       0.864405
     1094.091904       0.859856
     1094.151759       0.855137
     1094.211621       0.850418
     1094.271489       0.845533
     1094.331364       0.840649
     1094.391245       0.835603
     1094.451133       0.830558
     1094.511027       0.825357
     1094.570928       0.820156
     1094.630836       0.814805
     1094.690750       0.809454
     1094.750671       0.803960
     1094.810598       0.798466
     1094.870532       0.792835
     1094.930472       0.787204
     1094.990419       0.781444
     1095.050372       0.775685
     1095.110332       0.769803
     1095.170299       0.763922
     1095.230272       0.757926
     1095.290252       0.751931
     1095.350238       0.745830
     1095.410231       0.739729
     1095.470231       0.733532
     1095.530237       0.727335
     1095.590249       0.721049
     1095.650268       0.714763
     1095.710294       0.708398
     1095.770327       0.702032
     1095.830365       0.695595
     1095.890411       0.689159
     1095.950463       0.682659
     1096.010522       0.676160
     1096.070587       0.669606
     1096.130659       0.663053
     1096.190737       0.656452
     1096.250822       0.649853
     1096.310914       0.643215
     1096.371012       0.636578
     1096.431117       0.629909
     1096.491228       0.623241
     1096.551346       0.616549
     1096.611471       0.609858
     1096.671602       0.603151
     1096.731739       0.596444
     1096.791884       0.589727
     1096.852035       0.583012
     1096.912192       0.576292
     1096.972356       0.569573
     1097.032527       0.562858
     1097.092704       0.556143
     1097.152888       0.549436
     1097.213079       0.542731
     1097.273276       0.536040
     1097.333480       0.529350
     1097.393690       0.522679
     1097.453907       0.516010
     1097.514130       0.509365
     1097.574361       0.502722
     1097.634597       0.496108
     1097.694841       0.489497
     1097.755091       0.482918
     1097.815347       0.476343
     1097.875611       0.469807
     1097.935881       0.463273
     1097.996157       0.456783
     1098.056440       0.450296
     1098.116730       0.443856
     1098.177026       0.437421
     1098.237329       0.431038
     1098.297639       0.424659
     1098.357955       0.418338
     1098.418278       0.412021
     1098.478607       0.405766
     1098.538943       0.399516
     1098.599286       0.393333
     1098.659635       0.387154
     1098.719991       0.381048
     1098.780354       0.374946
     1098.840723       0.368922
     1098.901099       0.362903
     1098.961481       0.356964
     1099.021871       0.351032
     1099.082266       0.345186
     1099.142669       0.339346
     1099.203078       0.333596
     1099.263493       0.327852
     1099.323916       0.322203
     1099.384345       0.316561
     1099.444780       0.311018
     1099.505223       0.305482
     1099.565672       0.300048
     1099.626127       0.294621
     1099.686589       0.289306
     1099.747058       0.284006
     1099.807534       0.278814
     1099.868016       0.273630
     1099.928505       0.268557
     1099.989000       0.263492
     1100.049502       0.258539
     1100.110011       0.253596
     1100.170526       0.248767
     1100.231049       0.243948
     1100.291577       0.239244
     1100.352113       0.234551
     1100.412655       0.229975
     1100.473203       0.225409
     1100.533759       0.220961
     1100.594321       0.216523
     1100.654890       0.212203
     1100.715465       0.207894
     1100.776047       0.203703
     1100.836636       0.199523
     1100.897231       0.195461
     1100.957833       0.191409
     1101.018442       0.187474
     1101.079057       0.183551
     1101.139680       0.179743
     1101.200308       0.175947
     1101.260944       0.172265
     1101.321586       0.168594
     1101.382235       0.165036
     1101.442890       0.161489
     1101.503552       0.158053
     1101.564221       0.154629
     1101.624897       0.151313
     1101.685579       0.148009
     1101.746268       0.144811
     1101.806963       0.141625
     1101.867666       0.138543
     1101.928375       0.135472
     1101.989090       0.132502
     1102.049813       0.129545
     1102.110542       0.126685
     1102.171277       0.123838
     1102.232020       0.121086
     1102.292769       0.118346
     1102.353525       0.115698
     1102.414287       0.113063
     1102.475057       0.110518
     1102.535832       0.107984
     1102.596615       0.105537
     1102.657404       0.103103
     1102.718200       0.100752
     1102.779003       0.098414
     1102.839813       0.096156
     1102.900629       0.093911
     1102.961451       0.091744
     1103.022281       0.089588
     1103.083117       0.087509
     1103.143960       0.085441
     1103.204810       0.083446
     1103.265666       0.081463
     1103.326529       0.079550
     1103.387399       0.077649
     1103.448276       0.075815
     1103.509159       0.073993
     1103.570049       0.072237
     1103.630946       0.070491
     1103.691849       0.068808
     1103.752759       0.067137
     1103.813676       0.065525
     1103.874600       0.063925
     1103.935530       0.062383
     1103.996467       0.060852
     1104.057411       0.059376
     1104.118361       0.057911
     1104.179319       0.056500
     1104.240283       0.055099
     1104.301253       0.053750
     1104.362231       0.052411
     1104.423215       0.051122
     1104.484206       0.049842
     1104.545204       0.048610
     1104.606208       0.047388
     1104.667219       0.046212
     1104.728237       0.045045
     1104.789261       0.043922
     1104.850293       0.042808
     1104.911331       0.041736
     1104.972376       0.040673
     1105.033427       0.039650
     1105.094486       0.038636
     1105.155551       0.037661
     1105.216622       0.036694
     1105.277701       0.035764
     1105.338786       0.034843
     1105.399878       0.033957
     1105.460977       0.033079
     1105.522083       0.032234
     1105.583195       0.031398
     1105.644314       0.030594
     1105.705440       0.029797
     1105.766573       0.029031
     1105.827712       0.028273
     1105.888858       0.027544
     1105.950011       0.026822
     1106.011171       0.026129
     1106.072337       0.025442
     1106.133510       0.024782
     1106.194690       0.024129
     1106.255877       0.023501
     1106.317070       0.022880
     1106.378271       0.022283
     1106.439478       0.021693
     1106.500692       0.021126
     1106.561912       0.020564
     1106.623139       0.020025
     1106.684374       0.019492
     1106.745615       0.018980
     1106.806862       0.018473
     1106.868117       0.017986
     1106.929378       0.017505
     1106.990646       0.017043
     1107.051921       0.016586
     1107.113202       0.016148
     1107.174491       0.015714
     1107.235786       0.015297
     1107.297088       0.014886
     1107.358397       0.014490
     1107.419712       0.014100
     1107.481034       0.013724
     1107.542363       0.013354
     1107.603699       0.012998
     1107.665042       0.012646
     1107.726392       0.012309
     1107.787748       0.011975
     1107.849111       0.011655
     1107.910481       0.011339
     1107.971858       0.011035
     1108.033241       0.010736
     1108.094631       0.010448
     1108.156028       0.010164
     1108.217432       0.009891
     1108.278843       0.009622
     1108.340260       0.009363
     1108.401685       0.009108
     1108.463116       0.008863
     1108.524554       0.008621
     1108.585999       0.008389
     1108.647450       0.008160
     1108.708908       0.007940
     1108.770374       0.007723
     1108.831846       0.007515
     1108.893324       0.007309
     1108.954810       0.007112
     1109.016303       0.006917
     1109.077802       0.006731
     1109.139308       0.006546
     1109.200821       0.006369
     1109.262341       0.006195
     1109.323867       0.006027
     1109.385400       0.005862
     1109.446941       0.005703
     1109.508488       0.005547
     1109.570042       0.005397
     1109.631602       0.005248
     1109.693170       0.005106
     1109.754744       0.004966
     1109.816325       0.004832
     1109.877913       0.004699
     1109.939508       0.004572
     1110.001110       0.004446
     1110.062719       0.004326
     1110.124334       0.004207
     1110.185956       0.004093
     1110.247585       0.003980
     1110.309221       0.003873
     1110.370864       0.003766
     1110.432513       0.003664
     1110.494170       0.003564
     1110.555833       0.003467
     1110.617503       0.003372
     1110.679180       0.003281
     1110.740864       0.003191
     1110.802555       0.003104
     1110.864252       0.003019
     1110.925957       0.002938
     1110.987668       0.002857
     1111.049386       0.002780
     1111.111111       0.002704
     1111.172843       0.002631
     1111.234582       0.002558
     1111.296327       0.002489
     1111.358080       0.002421
     1111.419839       0.002356
     1111.481605       0.002291
     1111.543378       0.002230
     1111.605158       0.002169
     1111.666945       0.002110
     1111.728738       0.002053
     1111.790539       0.001998
     1111.852346       0.001943
     1111.914160       0.001891
     1111.975981       0.001839
     1112.037809       0.001790
     1112.099644       0.001741
     1112.161486       0.001695
     1112.223334       0.001648
     1112.285190       0.001604
     1112.347052       0.001561
     1112.408922       0.001519
     1112.470798       0.001478
     1112.532681       0.001438
     1112.594571       0.001399
     1112.656467       0.001362
     1112.718371       0.001325
     1112.780282       0.001290
     1112.842199       0.001255
     1112.904123       0.001222
     1112.966055       0.001189
     1113.027993       0.001157
     1113.089938       0.001126
     1113.151890       0.001096
     1113.213848       0.001067
     1113.275814       0.001039
     1113.337787       0.001011
     1113.399766       0.000984
     1113.461753       0.000958
     1113.523746       0.000933
     1113.585746       0.000908
     1113.647753       0.000884
     1113.709767       0.000860
     1113.771788       0.000838
     1113.833816       0.000816
     1113.895851       0.000794
     1113.957892       0.000773
     1114.019941       0.000753
     1114.081996       0.000733
     1114.144059       0.000714
     1114.206128       0.000695
     1114.268204       0.000677
     1114.330287       0.000659
     1114.392378       0.000642
     1114.454475       0.000625
     1114.516578       0.000609
     1114.578689       0.000593
     1114.640807       0.000578
     1114.702932       0.000563
     1114.765063       0.000548
     1114.827202       0.000534
     1114.889347       0.000520
     1114.951500       0.000506
     1115.013659       0.000493
     1115.075825       0.000481
     1115.137998       0.000468
     1115.200178       0.000456
     1115.262365       0.000445
     1115.324559       0.000433
     1115.386760       0.000422
     1115.448968       0.000411
     1115.511183       0.000401
     1115.573405       0.000391
     1115.635633       0.000381
     1115.697869       0.000371
     1115.760112       0.000362
     1115.822361       0.000352
     1115.884618       0.000343
     1115.946881       0.000335
     1116.009151       0.000326
     1116.071429       0.000318
     1116.133713       0.000310
     1116.196004       0.000302
     1116.258302       0.000295
     1116.320607       0.000287
     1116.382919       0.000280
     1116.445238       0.000273
     1116.507564       0.000266
     1116.569897       0.000260
     1116.632237       0.000253
     1116.694584       0.000247
     1116.756938       0.000241
     1116.819299       0.000235
     1116.881666       0.000229
     1116.944041       0.000223
     1117.006423       0.000218
     1117.068811       0.000212
     1117.131207       0.000207
     1117.193610       0.000202
     1117.256019       0.000197
     1117.318436       0.000192
     1117.380859       0.000188
     1117.443290       0.000183
     1117.505727       0.000179
     1117.568172       0.000174
     1117.630623       0.000170
     1117.693081       0.000166
     1117.755547       0.000162
     1117.818019       0.000158
     1117.880499       0.000154
     1117.942985       0.000150
     1118.005478       0.000147
