  12  ,noaa_08_hirs_12.flt
Number of data points:
72
Wavenumber (cm-1)   Filter response
     1382.400000       0.000000
     1393.500000       0.005704
     1401.600000       0.008403
     1412.600000       0.012272
     1420.000000       0.016055
     1422.100000       0.024802
     1424.500000       0.041146
     1426.600000       0.064091
     1428.800000       0.095100
     1430.600000       0.135330
     1432.000000       0.176710
     1433.100000       0.220710
     1435.000000       0.313210
     1436.500000       0.388930
     1438.100000       0.473030
     1439.400000       0.542220
     1441.100000       0.605790
     1442.400000       0.657260
     1443.900000       0.720470
     1445.100000       0.745030
     1446.400000       0.767040
     1448.300000       0.778900
     1450.200000       0.784390
     1453.000000       0.778780
     1454.500000       0.765050
     1456.700000       0.757320
     1459.500000       0.749700
     1462.900000       0.752000
     1466.400000       0.769980
     1470.200000       0.829480
     1474.500000       0.895550
     1478.000000       0.957790
     1479.600000       0.980810
     1481.900000       0.993410
     1484.000000       1.000000
     1485.700000       0.992020
     1488.700000       0.964120
     1490.400000       0.946430
     1493.100000       0.924790
     1495.500000       0.920120
     1499.100000       0.928190
     1501.200000       0.932620
     1502.800000       0.930940
     1504.900000       0.900110
     1506.700000       0.854050
     1508.900000       0.789630
     1510.800000       0.732140
     1512.800000       0.661490
     1514.200000       0.613280
     1516.500000       0.562240
     1518.000000       0.538550
     1519.400000       0.525630
     1520.800000       0.522640
     1522.300000       0.531660
     1523.400000       0.549910
     1524.000000       0.566340
     1525.000000       0.595690
     1526.100000       0.638110
     1527.700000       0.683470
     1528.600000       0.689580
     1529.300000       0.684360
     1530.000000       0.650950
     1530.800000       0.596010
     1532.700000       0.379620
     1534.800000       0.198510
     1536.200000       0.123290
     1537.500000       0.080009
     1539.300000       0.050370
     1541.100000       0.030078
     1543.100000       0.018063
     1546.300000       0.010438
     1569.200000       0.000000
