  13  ,noaa_14_hirs_13.flt
Number of data points:
101
Wavenumber (cm-1)   Filter response
     2160.300000       0.000000
     2160.900000       0.000000
     2161.500000       0.000000
     2162.100000       0.000000
     2162.700000       0.000000
     2163.300000       0.000167
     2163.900000       0.001800
     2164.500000       0.001806
     2165.100000       0.001812
     2165.700000       0.001818
     2166.300000       0.003656
     2166.900000       0.003666
     2167.500000       0.003677
     2168.100000       0.007010
     2168.700000       0.009621
     2169.300000       0.012083
     2169.900000       0.012495
     2170.600000       0.016897
     2171.200000       0.019219
     2171.800000       0.024922
     2172.400000       0.030510
     2173.000000       0.038163
     2173.600000       0.046274
     2174.100000       0.060172
     2174.700000       0.083700
     2175.300000       0.108300
     2175.900000       0.145790
     2176.500000       0.191520
     2177.100000       0.252340
     2177.700000       0.327450
     2178.300000       0.411130
     2178.900000       0.496740
     2179.500000       0.581600
     2180.100000       0.669530
     2180.700000       0.742130
     2181.300000       0.808020
     2181.900000       0.859400
     2182.500000       0.899360
     2183.100000       0.928210
     2183.700000       0.939960
     2184.300000       0.942080
     2184.900000       0.933940
     2185.500000       0.917780
     2186.100000       0.895440
     2186.700000       0.875930
     2187.300000       0.864450
     2187.900000       0.852420
     2188.500000       0.849030
     2189.100000       0.849800
     2189.700000       0.856360
     2190.300000       0.868270
     2190.900000       0.884610
     2191.500000       0.903880
     2192.100000       0.917950
     2192.700000       0.936380
     2193.300000       0.959600
     2193.900000       0.976810
     2194.500000       0.986600
     2195.100000       0.994410
     2195.700000       1.000000
     2196.300000       0.997810
     2196.900000       0.987680
     2197.500000       0.975360
     2198.100000       0.950020
     2198.700000       0.914170
     2199.300000       0.873730
     2199.900000       0.817300
     2200.500000       0.762030
     2201.100000       0.688870
     2201.700000       0.626570
     2202.300000       0.558670
     2202.900000       0.499880
     2203.500000       0.440840
     2204.100000       0.378890
     2204.700000       0.323190
     2205.300000       0.272050
     2205.900000       0.226450
     2206.500000       0.185810
     2207.100000       0.153220
     2207.700000       0.123460
     2208.300000       0.101100
     2208.900000       0.083099
     2209.500000       0.068523
     2210.100000       0.059174
     2210.700000       0.045006
     2211.300000       0.037708
     2211.900000       0.035181
     2212.500000       0.026798
     2213.100000       0.023497
     2213.700000       0.021071
     2214.300000       0.015924
     2214.900000       0.013022
     2215.500000       0.011454
     2216.100000       0.011004
     2216.700000       0.008295
     2217.300000       0.008269
     2217.900000       0.008257
     2218.500000       0.005517
     2219.100000       0.005492
     2219.700000       0.005466
     2220.300000       0.000000
