  12  ,noaa_07_hirs_12.flt
Number of data points:
82
Wavenumber (cm-1)   Filter response
     1382.400000       0.000000
     1392.500000       0.002229
     1393.800000       0.006241
     1407.400000       0.012616
     1421.000000       0.016721
     1423.500000       0.033004
     1427.300000       0.054398
     1428.700000       0.073989
     1430.100000       0.103890
     1431.400000       0.126550
     1432.900000       0.161650
     1434.600000       0.232700
     1435.800000       0.285990
     1436.300000       0.318930
     1438.000000       0.381010
     1438.400000       0.415350
     1439.300000       0.461370
     1440.200000       0.510340
     1441.200000       0.555220
     1441.900000       0.588420
     1443.000000       0.637760
     1445.900000       0.729580
     1448.500000       0.778580
     1450.100000       0.783500
     1452.400000       0.779790
     1454.100000       0.772090
     1456.300000       0.754780
     1461.600000       0.736860
     1463.600000       0.742250
     1465.600000       0.754330
     1467.500000       0.772440
     1470.000000       0.799990
     1473.100000       0.846390
     1474.300000       0.871000
     1475.900000       0.900630
     1477.400000       0.931770
     1478.600000       0.956220
     1483.000000       0.999420
     1485.100000       1.000000
     1487.800000       0.987530
     1488.500000       0.977260
     1492.900000       0.931330
     1495.700000       0.918920
     1498.200000       0.923220
     1502.100000       0.922480
     1504.500000       0.916310
     1506.700000       0.883420
     1507.900000       0.853170
     1510.800000       0.765990
     1512.600000       0.706370
     1514.000000       0.656560
     1515.100000       0.631140
     1516.200000       0.595890
     1518.400000       0.554300
     1519.700000       0.531320
     1520.500000       0.519260
     1521.200000       0.516800
     1522.400000       0.515640
     1523.800000       0.530370
     1525.300000       0.553950
     1526.100000       0.575500
     1527.400000       0.613780
     1528.000000       0.644660
     1529.200000       0.680200
     1530.200000       0.691130
     1531.000000       0.677300
     1531.500000       0.646600
     1532.400000       0.592110
     1533.200000       0.512160
     1533.800000       0.440200
     1534.600000       0.343770
     1535.800000       0.250810
     1536.400000       0.192770
     1537.100000       0.145790
     1537.900000       0.108790
     1539.300000       0.068731
     1541.700000       0.037937
     1544.600000       0.019020
     1548.800000       0.008880
     1557.200000       0.004707
     1565.500000       0.001489
     1571.700000       0.000000
