3,    channel 3 SRF extraacted from L9_OLI2_Ball_RSR.v1.0.xlsx (ch_res_3.txt)
Number of data points:
99
Wavenumber (cm-1)   Filter response
    16393.442600       0.000113
    16420.361200       0.000100
    16447.368400       0.000095
    16474.464600       0.000098
    16501.650200       0.000108
    16528.925600       0.000127
    16556.291400       0.000160
    16583.747900       0.000211
    16611.295700       0.000296
    16638.935100       0.000441
    16666.666700       0.000693
    16694.490800       0.001151
    16722.408000       0.002021
    16750.418800       0.003768
    16778.523500       0.006076
    16806.722700       0.012431
    16835.016800       0.026946
    16863.406400       0.058344
    16891.891900       0.120756
    16920.473800       0.216169
    16949.152500       0.345083
    16977.928700       0.516267
    17006.802700       0.710983
    17035.775100       0.864496
    17064.846400       0.927247
    17094.017100       0.931859
    17123.287700       0.928536
    17152.658700       0.935026
    17182.130600       0.949241
    17211.704000       0.974154
    17241.379300       0.989321
    17271.157200       0.995951
    17301.038100       0.998127
    17331.022500       0.999474
    17361.111100       1.000000
    17391.304300       0.999347
    17421.602800       0.996306
    17452.007000       0.991954
    17482.517500       0.986702
    17513.134900       0.983483
    17543.859600       0.983745
    17574.692400       0.987221
    17605.633800       0.991017
    17636.684300       0.993842
    17667.844500       0.994766
    17699.115000       0.991149
    17730.496500       0.986907
    17761.989300       0.984826
    17793.594300       0.985132
    17825.311900       0.987449
    17857.142900       0.990396
    17889.087700       0.991476
    17921.147000       0.992211
    17953.321400       0.992904
    17985.611500       0.995137
    18018.018000       0.997551
    18050.541500       0.997886
    18083.182600       0.992242
    18115.942000       0.984785
    18148.820300       0.976575
    18181.818200       0.970353
    18214.936200       0.962728
    18248.175200       0.965836
    18281.535600       0.969950
    18315.018300       0.975968
    18348.623900       0.971040
    18382.352900       0.967478
    18416.206300       0.967824
    18450.184500       0.961039
    18484.288400       0.959614
    18518.518500       0.957969
    18552.875700       0.960948
    18587.360600       0.960259
    18621.973900       0.951415
    18656.716400       0.910040
    18691.588800       0.861003
    18726.591800       0.725553
    18761.726100       0.528055
    18796.992500       0.382565
    18832.391700       0.237645
    18867.924500       0.142274
    18903.591700       0.083921
    18939.393900       0.049592
    18975.332100       0.031208
    19011.406800       0.020063
    19047.619000       0.013328
    19083.969500       0.009184
    19120.458900       0.006135
    19157.088100       0.004315
    19193.858000       0.003174
    19230.769200       0.001796
    19267.822700       0.001382
    19305.019300       0.001091
    19342.359800       0.000878
    19379.845000       0.000717
    19417.475700       0.000589
    19455.252900       0.000489
    19493.177400       0.000403
    19531.250000       0.000328
