   7  ,noaa_16_hirs_07.flt
Number of data points:
74
Wavenumber (cm-1)   Filter response
      724.000000       0.000000
      725.100000       0.002517
      725.980000       0.000261
      726.420000       0.002558
      727.000000       0.004874
      727.960000       0.004918
      728.980000       0.007290
      729.940000       0.009684
      730.810000       0.010923
      731.620000       0.014529
      732.280000       0.019335
      732.720000       0.027703
      733.300000       0.033748
      733.890000       0.037438
      734.400000       0.048318
      735.060000       0.061700
      735.640000       0.079958
      736.230000       0.104360
      736.810000       0.130100
      737.250000       0.160740
      737.830000       0.200150
      738.480000       0.254430
      739.060000       0.329130
      739.560000       0.404490
      740.360000       0.502450
      740.930000       0.596810
      741.440000       0.668730
      741.650000       0.717450
      742.160000       0.777850
      742.590000       0.827980
      742.880000       0.861670
      743.170000       0.881320
      743.460000       0.901100
      743.750000       0.923590
      744.190000       0.943850
      744.630000       0.962960
      745.070000       0.975960
      745.950000       0.992250
      746.610000       0.990880
      747.200000       0.992900
      748.000000       0.996680
      748.510000       0.999490
      749.250000       1.000000
      749.840000       0.993790
      750.720000       0.997600
      751.670000       0.996310
      752.480000       0.982430
      753.650000       0.963980
      754.460000       0.938660
      754.900000       0.924660
      755.270000       0.897740
      755.860000       0.855920
      756.530000       0.805660
      757.050000       0.756350
      757.720000       0.679000
      758.390000       0.584150
      758.830000       0.526790
      759.650000       0.432710
      760.540000       0.336680
      761.730000       0.215770
      761.950000       0.192880
      762.540000       0.162980
      763.350000       0.121780
      764.010000       0.095080
      764.670000       0.072297
      765.410000       0.056605
      766.360000       0.045115
      767.460000       0.031659
      768.420000       0.019592
      769.590000       0.015111
      770.470000       0.009027
      771.720000       0.009104
      773.180000       0.004532
      774.000000       0.000000
