02 , goes_12_imager_03.flt
Number of data points:
6060
Wavenumber (cm-1)   Filter response
     1267.000000       0.000070
     1267.100000       0.000070
     1267.200000       0.000070
     1267.300000       0.000070
     1267.400000       0.000060
     1267.500000       0.000060
     1267.600000       0.000060
     1267.700000       0.000060
     1267.800000       0.000060
     1267.900000       0.000050
     1268.000000       0.000050
     1268.100000       0.000050
     1268.200000       0.000050
     1268.300000       0.000040
     1268.400000       0.000040
     1268.500000       0.000030
     1268.600000       0.000030
     1268.700000       0.000020
     1268.800000       0.000020
     1268.900000       0.000010
     1269.000000       0.000010
     1269.100000       0.000000
     1269.200000       0.000000
     1269.300000       0.000000
     1269.400000       0.000000
     1269.500000       0.000000
     1269.600000       0.000000
     1269.700000       0.000000
     1269.800000       0.000000
     1269.900000       0.000000
     1270.000000       0.000000
     1270.100000       0.000000
     1270.200000       0.000000
     1270.300000       0.000000
     1270.400000       0.000000
     1270.500000       0.000000
     1270.600000       0.000000
     1270.700000       0.000000
     1270.800000       0.000000
     1270.900000       0.000000
     1271.000000       0.000000
     1271.100000       0.000000
     1271.200000       0.000000
     1271.300000       0.000000
     1271.400000       0.000000
     1271.500000       0.000000
     1271.600000       0.000000
     1271.700000       0.000000
     1271.800000       0.000000
     1271.900000       0.000000
     1272.000000       0.000000
     1272.100000       0.000000
     1272.200000       0.000000
     1272.300000       0.000000
     1272.400000       0.000000
     1272.500000       0.000000
     1272.600000       0.000000
     1272.700000       0.000000
     1272.800000       0.000000
     1272.900000       0.000000
     1273.000000       0.000000
     1273.100000       0.000000
     1273.200000       0.000000
     1273.300000       0.000000
     1273.400000       0.000000
     1273.500000       0.000030
     1273.600000       0.000060
     1273.700000       0.000090
     1273.800000       0.000122
     1273.900000       0.000160
     1274.000000       0.000200
     1274.100000       0.000240
     1274.200000       0.000280
     1274.300000       0.000320
     1274.400000       0.000370
     1274.500000       0.000412
     1274.600000       0.000460
     1274.700000       0.000510
     1274.800000       0.000560
     1274.900000       0.000612
     1275.000000       0.000670
     1275.100000       0.000720
     1275.200000       0.000772
     1275.300000       0.000830
     1275.400000       0.000882
     1275.500000       0.000935
     1275.600000       0.000990
     1275.700000       0.001042
     1275.800000       0.001100
     1275.900000       0.001152
     1276.000000       0.001202
     1276.100000       0.001252
     1276.200000       0.001302
     1276.300000       0.001352
     1276.400000       0.001402
     1276.500000       0.001442
     1276.600000       0.001485
     1276.700000       0.001525
     1276.800000       0.001565
     1276.900000       0.001602
     1277.000000       0.001635
     1277.100000       0.001665
     1277.200000       0.001695
     1277.300000       0.001722
     1277.400000       0.001742
     1277.500000       0.001765
     1277.600000       0.001782
     1277.700000       0.001797
     1277.800000       0.001807
     1277.900000       0.001817
     1278.000000       0.001825
     1278.100000       0.001827
     1278.200000       0.001832
     1278.300000       0.001832
     1278.400000       0.001827
     1278.500000       0.001822
     1278.600000       0.001817
     1278.700000       0.001807
     1278.800000       0.001797
     1278.900000       0.001785
     1279.000000       0.001772
     1279.100000       0.001757
     1279.200000       0.001742
     1279.300000       0.001722
     1279.400000       0.001705
     1279.500000       0.001685
     1279.600000       0.001665
     1279.700000       0.001642
     1279.800000       0.001622
     1279.900000       0.001602
     1280.000000       0.001575
     1280.100000       0.001552
     1280.200000       0.001525
     1280.300000       0.001502
     1280.400000       0.001472
     1280.500000       0.001445
     1280.600000       0.001415
     1280.700000       0.001385
     1280.800000       0.001355
     1280.900000       0.001325
     1281.000000       0.001292
     1281.100000       0.001262
     1281.200000       0.001225
     1281.300000       0.001192
     1281.400000       0.001152
     1281.500000       0.001112
     1281.600000       0.001072
     1281.700000       0.001032
     1281.800000       0.000985
     1281.900000       0.000942
     1282.000000       0.000892
     1282.100000       0.000842
     1282.200000       0.000792
     1282.300000       0.000742
     1282.400000       0.000690
     1282.500000       0.000630
     1282.600000       0.000572
     1282.700000       0.000512
     1282.800000       0.000450
     1282.900000       0.000390
     1283.000000       0.000320
     1283.100000       0.000260
     1283.200000       0.000190
     1283.300000       0.000120
     1283.400000       0.000060
     1283.500000       0.000000
     1283.600000       0.000000
     1283.700000       0.000000
     1283.800000       0.000000
     1283.900000       0.000000
     1284.000000       0.000000
     1284.100000       0.000000
     1284.200000       0.000000
     1284.300000       0.000000
     1284.400000       0.000000
     1284.500000       0.000000
     1284.600000       0.000000
     1284.700000       0.000000
     1284.800000       0.000000
     1284.900000       0.000000
     1285.000000       0.000000
     1285.100000       0.000000
     1285.200000       0.000000
     1285.300000       0.000000
     1285.400000       0.000000
     1285.500000       0.000000
     1285.600000       0.000000
     1285.700000       0.000000
     1285.800000       0.000000
     1285.900000       0.000000
     1286.000000       0.000000
     1286.100000       0.000000
     1286.200000       0.000000
     1286.300000       0.000000
     1286.400000       0.000000
     1286.500000       0.000000
     1286.600000       0.000000
     1286.700000       0.000000
     1286.800000       0.000000
     1286.900000       0.000000
     1287.000000       0.000000
     1287.100000       0.000000
     1287.200000       0.000000
     1287.300000       0.000092
     1287.400000       0.000200
     1287.500000       0.000310
     1287.600000       0.000430
     1287.700000       0.000542
     1287.800000       0.000662
     1287.900000       0.000782
     1288.000000       0.000902
     1288.100000       0.001030
     1288.200000       0.001152
     1288.300000       0.001272
     1288.400000       0.001402
     1288.500000       0.001522
     1288.600000       0.001642
     1288.700000       0.001755
     1288.800000       0.001872
     1288.900000       0.001985
     1289.000000       0.002095
     1289.100000       0.002202
     1289.200000       0.002305
     1289.300000       0.002405
     1289.400000       0.002497
     1289.500000       0.002585
     1289.600000       0.002675
     1289.700000       0.002755
     1289.800000       0.002825
     1289.900000       0.002895
     1290.000000       0.002955
     1290.100000       0.003015
     1290.200000       0.003065
     1290.300000       0.003115
     1290.400000       0.003155
     1290.500000       0.003185
     1290.600000       0.003215
     1290.700000       0.003235
     1290.800000       0.003247
     1290.900000       0.003257
     1291.000000       0.003265
     1291.100000       0.003265
     1291.200000       0.003255
     1291.300000       0.003245
     1291.400000       0.003227
     1291.500000       0.003205
     1291.600000       0.003177
     1291.700000       0.003147
     1291.800000       0.003115
     1291.900000       0.003075
     1292.000000       0.003027
     1292.100000       0.002985
     1292.200000       0.002935
     1292.300000       0.002885
     1292.400000       0.002825
     1292.500000       0.002775
     1292.600000       0.002715
     1292.700000       0.002655
     1292.800000       0.002595
     1292.900000       0.002530
     1293.000000       0.002465
     1293.100000       0.002405
     1293.200000       0.002342
     1293.300000       0.002275
     1293.400000       0.002215
     1293.500000       0.002155
     1293.600000       0.002095
     1293.700000       0.002042
     1293.800000       0.001985
     1293.900000       0.001935
     1294.000000       0.001885
     1294.100000       0.001840
     1294.200000       0.001795
     1294.300000       0.001752
     1294.400000       0.001720
     1294.500000       0.001685
     1294.600000       0.001660
     1294.700000       0.001632
     1294.800000       0.001615
     1294.900000       0.001602
     1295.000000       0.001592
     1295.100000       0.001592
     1295.200000       0.001592
     1295.300000       0.001595
     1295.400000       0.001610
     1295.500000       0.001622
     1295.600000       0.001650
     1295.700000       0.001675
     1295.800000       0.001712
     1295.900000       0.001750
     1296.000000       0.001792
     1296.100000       0.001842
     1296.200000       0.001900
     1296.300000       0.001955
     1296.400000       0.002020
     1296.500000       0.002085
     1296.600000       0.002160
     1296.700000       0.002235
     1296.800000       0.002315
     1296.900000       0.002395
     1297.000000       0.002485
     1297.100000       0.002572
     1297.200000       0.002662
     1297.300000       0.002755
     1297.400000       0.002850
     1297.500000       0.002942
     1297.600000       0.003042
     1297.700000       0.003132
     1297.800000       0.003232
     1297.900000       0.003322
     1298.000000       0.003422
     1298.100000       0.003512
     1298.200000       0.003602
     1298.300000       0.003692
     1298.400000       0.003775
     1298.500000       0.003862
     1298.600000       0.003942
     1298.700000       0.004015
     1298.800000       0.004085
     1298.900000       0.004152
     1299.000000       0.004212
     1299.100000       0.004265
     1299.200000       0.004315
     1299.300000       0.004365
     1299.400000       0.004405
     1299.500000       0.004435
     1299.600000       0.004465
     1299.700000       0.004485
     1299.800000       0.004495
     1299.900000       0.004505
     1300.000000       0.004505
     1300.100000       0.004500
     1300.200000       0.004490
     1300.300000       0.004475
     1300.400000       0.004450
     1300.500000       0.004420
     1300.600000       0.004385
     1300.700000       0.004345
     1300.800000       0.004295
     1300.900000       0.004242
     1301.000000       0.004185
     1301.100000       0.004122
     1301.200000       0.004055
     1301.300000       0.003985
     1301.400000       0.003912
     1301.500000       0.003832
     1301.600000       0.003752
     1301.700000       0.003665
     1301.800000       0.003582
     1301.900000       0.003492
     1302.000000       0.003402
     1302.100000       0.003312
     1302.200000       0.003220
     1302.300000       0.003122
     1302.400000       0.003032
     1302.500000       0.002940
     1302.600000       0.002845
     1302.700000       0.002755
     1302.800000       0.002665
     1302.900000       0.002580
     1303.000000       0.002492
     1303.100000       0.002410
     1303.200000       0.002325
     1303.300000       0.002245
     1303.400000       0.002170
     1303.500000       0.002100
     1303.600000       0.002030
     1303.700000       0.001962
     1303.800000       0.001900
     1303.900000       0.001842
     1304.000000       0.001790
     1304.100000       0.001740
     1304.200000       0.001692
     1304.300000       0.001650
     1304.400000       0.001610
     1304.500000       0.001572
     1304.600000       0.001542
     1304.700000       0.001520
     1304.800000       0.001500
     1304.900000       0.001482
     1305.000000       0.001462
     1305.100000       0.001452
     1305.200000       0.001452
     1305.300000       0.001447
     1305.400000       0.001447
     1305.500000       0.001452
     1305.600000       0.001460
     1305.700000       0.001470
     1305.800000       0.001482
     1305.900000       0.001500
     1306.000000       0.001512
     1306.100000       0.001540
     1306.200000       0.001562
     1306.300000       0.001582
     1306.400000       0.001612
     1306.500000       0.001642
     1306.600000       0.001672
     1306.700000       0.001705
     1306.800000       0.001742
     1306.900000       0.001772
     1307.000000       0.001812
     1307.100000       0.001845
     1307.200000       0.001882
     1307.300000       0.001922
     1307.400000       0.001960
     1307.500000       0.002000
     1307.600000       0.002035
     1307.700000       0.002072
     1307.800000       0.002110
     1307.900000       0.002145
     1308.000000       0.002182
     1308.100000       0.002220
     1308.200000       0.002255
     1308.300000       0.002285
     1308.400000       0.002320
     1308.500000       0.002352
     1308.600000       0.002385
     1308.700000       0.002410
     1308.800000       0.002435
     1308.900000       0.002465
     1309.000000       0.002485
     1309.100000       0.002510
     1309.200000       0.002535
     1309.300000       0.002555
     1309.400000       0.002572
     1309.500000       0.002590
     1309.600000       0.002605
     1309.700000       0.002615
     1309.800000       0.002632
     1309.900000       0.002645
     1310.000000       0.002655
     1310.100000       0.002665
     1310.200000       0.002672
     1310.300000       0.002680
     1310.400000       0.002685
     1310.500000       0.002695
     1310.600000       0.002702
     1310.700000       0.002705
     1310.800000       0.002715
     1310.900000       0.002725
     1311.000000       0.002732
     1311.100000       0.002742
     1311.200000       0.002752
     1311.300000       0.002765
     1311.400000       0.002775
     1311.500000       0.002795
     1311.600000       0.002812
     1311.700000       0.002835
     1311.800000       0.002857
     1311.900000       0.002885
     1312.000000       0.002917
     1312.100000       0.002952
     1312.200000       0.002992
     1312.300000       0.003032
     1312.400000       0.003077
     1312.500000       0.003127
     1312.600000       0.003185
     1312.700000       0.003247
     1312.800000       0.003312
     1312.900000       0.003382
     1313.000000       0.003457
     1313.100000       0.003537
     1313.200000       0.003617
     1313.300000       0.003707
     1313.400000       0.003805
     1313.500000       0.003905
     1313.600000       0.004005
     1313.700000       0.004115
     1313.800000       0.004230
     1313.900000       0.004347
     1314.000000       0.004470
     1314.100000       0.004597
     1314.200000       0.004727
     1314.300000       0.004857
     1314.400000       0.004990
     1314.500000       0.005127
     1314.600000       0.005267
     1314.700000       0.005407
     1314.800000       0.005550
     1314.900000       0.005690
     1315.000000       0.005830
     1315.100000       0.005980
     1315.200000       0.006120
     1315.300000       0.006260
     1315.400000       0.006392
     1315.500000       0.006532
     1315.600000       0.006662
     1315.700000       0.006792
     1315.800000       0.006922
     1315.900000       0.007042
     1316.000000       0.007155
     1316.100000       0.007272
     1316.200000       0.007375
     1316.300000       0.007477
     1316.400000       0.007575
     1316.500000       0.007665
     1316.600000       0.007755
     1316.700000       0.007825
     1316.800000       0.007895
     1316.900000       0.007965
     1317.000000       0.008017
     1317.100000       0.008070
     1317.200000       0.008115
     1317.300000       0.008155
     1317.400000       0.008187
     1317.500000       0.008215
     1317.600000       0.008237
     1317.700000       0.008250
     1317.800000       0.008260
     1317.900000       0.008267
     1318.000000       0.008267
     1318.100000       0.008265
     1318.200000       0.008260
     1318.300000       0.008250
     1318.400000       0.008240
     1318.500000       0.008230
     1318.600000       0.008217
     1318.700000       0.008205
     1318.800000       0.008190
     1318.900000       0.008180
     1319.000000       0.008170
     1319.100000       0.008160
     1319.200000       0.008157
     1319.300000       0.008155
     1319.400000       0.008155
     1319.500000       0.008160
     1319.600000       0.008170
     1319.700000       0.008190
     1319.800000       0.008210
     1319.900000       0.008240
     1320.000000       0.008277
     1320.100000       0.008317
     1320.200000       0.008367
     1320.300000       0.008427
     1320.400000       0.008487
     1320.500000       0.008557
     1320.600000       0.008637
     1320.700000       0.008727
     1320.800000       0.008820
     1320.900000       0.008930
     1321.000000       0.009040
     1321.100000       0.009157
     1321.200000       0.009280
     1321.300000       0.009417
     1321.400000       0.009550
     1321.500000       0.009695
     1321.600000       0.009845
     1321.700000       0.010000
     1321.800000       0.010157
     1321.900000       0.010327
     1322.000000       0.010495
     1322.100000       0.010665
     1322.200000       0.010837
     1322.300000       0.011015
     1322.400000       0.011190
     1322.500000       0.011365
     1322.600000       0.011537
     1322.700000       0.011717
     1322.800000       0.011890
     1322.900000       0.012065
     1323.000000       0.012232
     1323.100000       0.012397
     1323.200000       0.012565
     1323.300000       0.012722
     1323.400000       0.012882
     1323.500000       0.013030
     1323.600000       0.013175
     1323.700000       0.013312
     1323.800000       0.013450
     1323.900000       0.013580
     1324.000000       0.013702
     1324.100000       0.013822
     1324.200000       0.013937
     1324.300000       0.014045
     1324.400000       0.014147
     1324.500000       0.014247
     1324.600000       0.014342
     1324.700000       0.014425
     1324.800000       0.014512
     1324.900000       0.014592
     1325.000000       0.014662
     1325.100000       0.014740
     1325.200000       0.014802
     1325.300000       0.014870
     1325.400000       0.014932
     1325.500000       0.014997
     1325.600000       0.015055
     1325.700000       0.015110
     1325.800000       0.015165
     1325.900000       0.015225
     1326.000000       0.015277
     1326.100000       0.015335
     1326.200000       0.015392
     1326.300000       0.015452
     1326.400000       0.015515
     1326.500000       0.015580
     1326.600000       0.015650
     1326.700000       0.015720
     1326.800000       0.015797
     1326.900000       0.015877
     1327.000000       0.015960
     1327.100000       0.016050
     1327.200000       0.016145
     1327.300000       0.016245
     1327.400000       0.016352
     1327.500000       0.016462
     1327.600000       0.016582
     1327.700000       0.016705
     1327.800000       0.016835
     1327.900000       0.016972
     1328.000000       0.017115
     1328.100000       0.017262
     1328.200000       0.017417
     1328.300000       0.017572
     1328.400000       0.017740
     1328.500000       0.017902
     1328.600000       0.018080
     1328.700000       0.018250
     1328.800000       0.018437
     1328.900000       0.018617
     1329.000000       0.018807
     1329.100000       0.018997
     1329.200000       0.019190
     1329.300000       0.019387
     1329.400000       0.019587
     1329.500000       0.019790
     1329.600000       0.019995
     1329.700000       0.020200
     1329.800000       0.020407
     1329.900000       0.020617
     1330.000000       0.020827
     1330.100000       0.021045
     1330.200000       0.021257
     1330.300000       0.021472
     1330.400000       0.021687
     1330.500000       0.021907
     1330.600000       0.022122
     1330.700000       0.022337
     1330.800000       0.022557
     1330.900000       0.022777
     1331.000000       0.023000
     1331.100000       0.023220
     1331.200000       0.023445
     1331.300000       0.023670
     1331.400000       0.023897
     1331.500000       0.024122
     1331.600000       0.024352
     1331.700000       0.024582
     1331.800000       0.024820
     1331.900000       0.025055
     1332.000000       0.025295
     1332.100000       0.025537
     1332.200000       0.025782
     1332.300000       0.026035
     1332.400000       0.026290
     1332.500000       0.026550
     1332.600000       0.026817
     1332.700000       0.027090
     1332.800000       0.027370
     1332.900000       0.027652
     1333.000000       0.027942
     1333.100000       0.028237
     1333.200000       0.028545
     1333.300000       0.028857
     1333.400000       0.029175
     1333.500000       0.029500
     1333.600000       0.029832
     1333.700000       0.030180
     1333.800000       0.030532
     1333.900000       0.030892
     1334.000000       0.031257
     1334.100000       0.031635
     1334.200000       0.032017
     1334.300000       0.032402
     1334.400000       0.032802
     1334.500000       0.033205
     1334.600000       0.033615
     1334.700000       0.034035
     1334.800000       0.034457
     1334.900000       0.034890
     1335.000000       0.035330
     1335.100000       0.035772
     1335.200000       0.036217
     1335.300000       0.036667
     1335.400000       0.037130
     1335.500000       0.037590
     1335.600000       0.038052
     1335.700000       0.038525
     1335.800000       0.039000
     1335.900000       0.039477
     1336.000000       0.039957
     1336.100000       0.040440
     1336.200000       0.040925
     1336.300000       0.041415
     1336.400000       0.041897
     1336.500000       0.042387
     1336.600000       0.042877
     1336.700000       0.043370
     1336.800000       0.043860
     1336.900000       0.044350
     1337.000000       0.044840
     1337.100000       0.045330
     1337.200000       0.045820
     1337.300000       0.046312
     1337.400000       0.046802
     1337.500000       0.047292
     1337.600000       0.047785
     1337.700000       0.048277
     1337.800000       0.048767
     1337.900000       0.049257
     1338.000000       0.049750
     1338.100000       0.050240
     1338.200000       0.050730
     1338.300000       0.051225
     1338.400000       0.051715
     1338.500000       0.052210
     1338.600000       0.052710
     1338.700000       0.053210
     1338.800000       0.053705
     1338.900000       0.054210
     1339.000000       0.054715
     1339.100000       0.055222
     1339.200000       0.055735
     1339.300000       0.056247
     1339.400000       0.056767
     1339.500000       0.057292
     1339.600000       0.057822
     1339.700000       0.058357
     1339.800000       0.058902
     1339.900000       0.059447
     1340.000000       0.060002
     1340.100000       0.060565
     1340.200000       0.061127
     1340.300000       0.061705
     1340.400000       0.062285
     1340.500000       0.062872
     1340.600000       0.063470
     1340.700000       0.064072
     1340.800000       0.064692
     1340.900000       0.065312
     1341.000000       0.065937
     1341.100000       0.066575
     1341.200000       0.067217
     1341.300000       0.067867
     1341.400000       0.068522
     1341.500000       0.069185
     1341.600000       0.069855
     1341.700000       0.070532
     1341.800000       0.071217
     1341.900000       0.071905
     1342.000000       0.072605
     1342.100000       0.073307
     1342.200000       0.074020
     1342.300000       0.074740
     1342.400000       0.075470
     1342.500000       0.076205
     1342.600000       0.076955
     1342.700000       0.077707
     1342.800000       0.078477
     1342.900000       0.079250
     1343.000000       0.080035
     1343.100000       0.080827
     1343.200000       0.081630
     1343.300000       0.082440
     1343.400000       0.083260
     1343.500000       0.084087
     1343.600000       0.084925
     1343.700000       0.085773
     1343.800000       0.086633
     1343.900000       0.087495
     1344.000000       0.088365
     1344.100000       0.089248
     1344.200000       0.090138
     1344.300000       0.091038
     1344.400000       0.091945
     1344.500000       0.092860
     1344.600000       0.093788
     1344.700000       0.094718
     1344.800000       0.095660
     1344.900000       0.096610
     1345.000000       0.097570
     1345.100000       0.098538
     1345.200000       0.099515
     1345.300000       0.100505
     1345.400000       0.101505
     1345.500000       0.102515
     1345.600000       0.103538
     1345.700000       0.104575
     1345.800000       0.105625
     1345.900000       0.106685
     1346.000000       0.107758
     1346.100000       0.108838
     1346.200000       0.109933
     1346.300000       0.111035
     1346.400000       0.112153
     1346.500000       0.113278
     1346.600000       0.114415
     1346.700000       0.115568
     1346.800000       0.116730
     1346.900000       0.117903
     1347.000000       0.119083
     1347.100000       0.120278
     1347.200000       0.121478
     1347.300000       0.122698
     1347.400000       0.123923
     1347.500000       0.125165
     1347.600000       0.126415
     1347.700000       0.127680
     1347.800000       0.128955
     1347.900000       0.130245
     1348.000000       0.131550
     1348.100000       0.132860
     1348.200000       0.134185
     1348.300000       0.135525
     1348.400000       0.136870
     1348.500000       0.138233
     1348.600000       0.139608
     1348.700000       0.140990
     1348.800000       0.142393
     1348.900000       0.143803
     1349.000000       0.145228
     1349.100000       0.146663
     1349.200000       0.148108
     1349.300000       0.149570
     1349.400000       0.151042
     1349.500000       0.152528
     1349.600000       0.154032
     1349.700000       0.155545
     1349.800000       0.157080
     1349.900000       0.158622
     1350.000000       0.160188
     1350.100000       0.161760
     1350.200000       0.163348
     1350.300000       0.164958
     1350.400000       0.166573
     1350.500000       0.168208
     1350.600000       0.169857
     1350.700000       0.171525
     1350.800000       0.173217
     1350.900000       0.174923
     1351.000000       0.176640
     1351.100000       0.178382
     1351.200000       0.180137
     1351.300000       0.181915
     1351.400000       0.183707
     1351.500000       0.185530
     1351.600000       0.187365
     1351.700000       0.189222
     1351.800000       0.191105
     1351.900000       0.193007
     1352.000000       0.194925
     1352.100000       0.196870
     1352.200000       0.198827
     1352.300000       0.200810
     1352.400000       0.202812
     1352.500000       0.204837
     1352.600000       0.206877
     1352.700000       0.208942
     1352.800000       0.211030
     1352.900000       0.213130
     1353.000000       0.215252
     1353.100000       0.217380
     1353.200000       0.219530
     1353.300000       0.221687
     1353.400000       0.223860
     1353.500000       0.226037
     1353.600000       0.228230
     1353.700000       0.230425
     1353.800000       0.232630
     1353.900000       0.234845
     1354.000000       0.237065
     1354.100000       0.239292
     1354.200000       0.241525
     1354.300000       0.243767
     1354.400000       0.246012
     1354.500000       0.248267
     1354.600000       0.250527
     1354.700000       0.252795
     1354.800000       0.255075
     1354.900000       0.257360
     1355.000000       0.259655
     1355.100000       0.261965
     1355.200000       0.264282
     1355.300000       0.266622
     1355.400000       0.268977
     1355.500000       0.271355
     1355.600000       0.273752
     1355.700000       0.276172
     1355.800000       0.278615
     1355.900000       0.281077
     1356.000000       0.283552
     1356.100000       0.286045
     1356.200000       0.288547
     1356.300000       0.291060
     1356.400000       0.293582
     1356.500000       0.296112
     1356.600000       0.298645
     1356.700000       0.301177
     1356.800000       0.303720
     1356.900000       0.306272
     1357.000000       0.308827
     1357.100000       0.311400
     1357.200000       0.313980
     1357.300000       0.316582
     1357.400000       0.319200
     1357.500000       0.321837
     1357.600000       0.324500
     1357.700000       0.327190
     1357.800000       0.329905
     1357.900000       0.332647
     1358.000000       0.335405
     1358.100000       0.338182
     1358.200000       0.340985
     1358.300000       0.343810
     1358.400000       0.346650
     1358.500000       0.349505
     1358.600000       0.352388
     1358.700000       0.355280
     1358.800000       0.358193
     1358.900000       0.361120
     1359.000000       0.364063
     1359.100000       0.367025
     1359.200000       0.369997
     1359.300000       0.372990
     1359.400000       0.375990
     1359.500000       0.379005
     1359.600000       0.382037
     1359.700000       0.385082
     1359.800000       0.388145
     1359.900000       0.391223
     1360.000000       0.394305
     1360.100000       0.397413
     1360.200000       0.400528
     1360.300000       0.403665
     1360.400000       0.406818
     1360.500000       0.409983
     1360.600000       0.413168
     1360.700000       0.416373
     1360.800000       0.419590
     1360.900000       0.422828
     1361.000000       0.426073
     1361.100000       0.429338
     1361.200000       0.432605
     1361.300000       0.435883
     1361.400000       0.439168
     1361.500000       0.442453
     1361.600000       0.445743
     1361.700000       0.449038
     1361.800000       0.452340
     1361.900000       0.455640
     1362.000000       0.458948
     1362.100000       0.462253
     1362.200000       0.465570
     1362.300000       0.468898
     1362.400000       0.472230
     1362.500000       0.475568
     1362.600000       0.478918
     1362.700000       0.482280
     1362.800000       0.485652
     1362.900000       0.489028
     1363.000000       0.492412
     1363.100000       0.495800
     1363.200000       0.499198
     1363.300000       0.502598
     1363.400000       0.506000
     1363.500000       0.509397
     1363.600000       0.512797
     1363.700000       0.516202
     1363.800000       0.519605
     1363.900000       0.523007
     1364.000000       0.526407
     1364.100000       0.529807
     1364.200000       0.533212
     1364.300000       0.536622
     1364.400000       0.540027
     1364.500000       0.543435
     1364.600000       0.546845
     1364.700000       0.550262
     1364.800000       0.553682
     1364.900000       0.557102
     1365.000000       0.560532
     1365.100000       0.563960
     1365.200000       0.567400
     1365.300000       0.570850
     1365.400000       0.574302
     1365.500000       0.577759
     1365.600000       0.581234
     1365.700000       0.584715
     1365.800000       0.588207
     1365.900000       0.591700
     1366.000000       0.595202
     1366.100000       0.598697
     1366.200000       0.602194
     1366.300000       0.605697
     1366.400000       0.609184
     1366.500000       0.612672
     1366.600000       0.616139
     1366.700000       0.619599
     1366.800000       0.623057
     1366.900000       0.626502
     1367.000000       0.629939
     1367.100000       0.633374
     1367.200000       0.636809
     1367.300000       0.640252
     1367.400000       0.643687
     1367.500000       0.647129
     1367.600000       0.650584
     1367.700000       0.654044
     1367.800000       0.657514
     1367.900000       0.660984
     1368.000000       0.664457
     1368.100000       0.667926
     1368.200000       0.671394
     1368.300000       0.674854
     1368.400000       0.678309
     1368.500000       0.681749
     1368.600000       0.685172
     1368.700000       0.688577
     1368.800000       0.691974
     1368.900000       0.695346
     1369.000000       0.698701
     1369.100000       0.702044
     1369.200000       0.705374
     1369.300000       0.708689
     1369.400000       0.711986
     1369.500000       0.715271
     1369.600000       0.718544
     1369.700000       0.721796
     1369.800000       0.725039
     1369.900000       0.728261
     1370.000000       0.731469
     1370.100000       0.734661
     1370.200000       0.737839
     1370.300000       0.741001
     1370.400000       0.744139
     1370.500000       0.747264
     1370.600000       0.750371
     1370.700000       0.753454
     1370.800000       0.756519
     1370.900000       0.759569
     1371.000000       0.762606
     1371.100000       0.765631
     1371.200000       0.768651
     1371.300000       0.771664
     1371.400000       0.774669
     1371.500000       0.777671
     1371.600000       0.780671
     1371.700000       0.783674
     1371.800000       0.786679
     1371.900000       0.789684
     1372.000000       0.792684
     1372.100000       0.795686
     1372.200000       0.798689
     1372.300000       0.801694
     1372.400000       0.804691
     1372.500000       0.807684
     1372.600000       0.810674
     1372.700000       0.813664
     1372.800000       0.816649
     1372.900000       0.819616
     1373.000000       0.822581
     1373.100000       0.825529
     1373.200000       0.828457
     1373.300000       0.831372
     1373.400000       0.834256
     1373.500000       0.837109
     1373.600000       0.839936
     1373.700000       0.842731
     1373.800000       0.845489
     1373.900000       0.848219
     1374.000000       0.850924
     1374.100000       0.853607
     1374.200000       0.856264
     1374.300000       0.858904
     1374.400000       0.861522
     1374.500000       0.864124
     1374.600000       0.866714
     1374.700000       0.869287
     1374.800000       0.871847
     1374.900000       0.874392
     1375.000000       0.876922
     1375.100000       0.879437
     1375.200000       0.881937
     1375.300000       0.884429
     1375.400000       0.886904
     1375.500000       0.889359
     1375.600000       0.891799
     1375.700000       0.894219
     1375.800000       0.896627
     1375.900000       0.899014
     1376.000000       0.901387
     1376.100000       0.903734
     1376.200000       0.906069
     1376.300000       0.908387
     1376.400000       0.910684
     1376.500000       0.912954
     1376.600000       0.915212
     1376.700000       0.917439
     1376.800000       0.919647
     1376.900000       0.921827
     1377.000000       0.923974
     1377.100000       0.926092
     1377.200000       0.928172
     1377.300000       0.930219
     1377.400000       0.932219
     1377.500000       0.934169
     1377.600000       0.936069
     1377.700000       0.937919
     1377.800000       0.939717
     1377.900000       0.941467
     1378.000000       0.943169
     1378.100000       0.944837
     1378.200000       0.946459
     1378.300000       0.948052
     1378.400000       0.949609
     1378.500000       0.951132
     1378.600000       0.952624
     1378.700000       0.954087
     1378.800000       0.955527
     1378.900000       0.956932
     1379.000000       0.958325
     1379.100000       0.959687
     1379.200000       0.961035
     1379.300000       0.962362
     1379.400000       0.963674
     1379.500000       0.964970
     1379.600000       0.966247
     1379.700000       0.967515
     1379.800000       0.968767
     1379.900000       0.969994
     1380.000000       0.971202
     1380.100000       0.972382
     1380.200000       0.973537
     1380.300000       0.974655
     1380.400000       0.975745
     1380.500000       0.976785
     1380.600000       0.977782
     1380.700000       0.978734
     1380.800000       0.979642
     1380.900000       0.980512
     1381.000000       0.981349
     1381.100000       0.982162
     1381.200000       0.982950
     1381.300000       0.983722
     1381.400000       0.984480
     1381.500000       0.985227
     1381.600000       0.985972
     1381.700000       0.986715
     1381.800000       0.987460
     1381.900000       0.988195
     1382.000000       0.988925
     1382.100000       0.989647
     1382.200000       0.990360
     1382.300000       0.991062
     1382.400000       0.991745
     1382.500000       0.992415
     1382.600000       0.993062
     1382.700000       0.993690
     1382.800000       0.994292
     1382.900000       0.994872
     1383.000000       0.995425
     1383.100000       0.995945
     1383.200000       0.996432
     1383.300000       0.996892
     1383.400000       0.997310
     1383.500000       0.997690
     1383.600000       0.998020
     1383.700000       0.998302
     1383.800000       0.998545
     1383.900000       0.998747
     1384.000000       0.998917
     1384.100000       0.999065
     1384.200000       0.999192
     1384.300000       0.999297
     1384.400000       0.999387
     1384.500000       0.999475
     1384.600000       0.999552
     1384.700000       0.999632
     1384.800000       0.999702
     1384.900000       0.999770
     1385.000000       0.999837
     1385.100000       0.999888
     1385.200000       0.999935
     1385.300000       0.999973
     1385.400000       0.999992
     1385.500000       1.000000
     1385.600000       0.999988
     1385.700000       0.999955
     1385.800000       0.999905
     1385.900000       0.999833
     1386.000000       0.999748
     1386.100000       0.999638
     1386.200000       0.999513
     1386.300000       0.999363
     1386.400000       0.999198
     1386.500000       0.999005
     1386.600000       0.998793
     1386.700000       0.998558
     1386.800000       0.998308
     1386.900000       0.998038
     1387.000000       0.997760
     1387.100000       0.997480
     1387.200000       0.997195
     1387.300000       0.996910
     1387.400000       0.996635
     1387.500000       0.996365
     1387.600000       0.996118
     1387.700000       0.995885
     1387.800000       0.995668
     1387.900000       0.995458
     1388.000000       0.995260
     1388.100000       0.995070
     1388.200000       0.994880
     1388.300000       0.994693
     1388.400000       0.994503
     1388.500000       0.994305
     1388.600000       0.994100
     1388.700000       0.993885
     1388.800000       0.993655
     1388.900000       0.993418
     1389.000000       0.993168
     1389.100000       0.992908
     1389.200000       0.992636
     1389.300000       0.992348
     1389.400000       0.992040
     1389.500000       0.991728
     1389.600000       0.991393
     1389.700000       0.991046
     1389.800000       0.990683
     1389.900000       0.990313
     1390.000000       0.989938
     1390.100000       0.989561
     1390.200000       0.989183
     1390.300000       0.988816
     1390.400000       0.988458
     1390.500000       0.988118
     1390.600000       0.987788
     1390.700000       0.987481
     1390.800000       0.987189
     1390.900000       0.986911
     1391.000000       0.986641
     1391.100000       0.986374
     1391.200000       0.986101
     1391.300000       0.985824
     1391.400000       0.985536
     1391.500000       0.985234
     1391.600000       0.984906
     1391.700000       0.984561
     1391.800000       0.984189
     1391.900000       0.983801
     1392.000000       0.983399
     1392.100000       0.982979
     1392.200000       0.982554
     1392.300000       0.982111
     1392.400000       0.981671
     1392.500000       0.981221
     1392.600000       0.980769
     1392.700000       0.980319
     1392.800000       0.979871
     1392.900000       0.979414
     1393.000000       0.978957
     1393.100000       0.978499
     1393.200000       0.978034
     1393.300000       0.977567
     1393.400000       0.977092
     1393.500000       0.976607
     1393.600000       0.976119
     1393.700000       0.975614
     1393.800000       0.975109
     1393.900000       0.974589
     1394.000000       0.974064
     1394.100000       0.973537
     1394.200000       0.973001
     1394.300000       0.972459
     1394.400000       0.971914
     1394.500000       0.971359
     1394.600000       0.970807
     1394.700000       0.970241
     1394.800000       0.969686
     1394.900000       0.969124
     1395.000000       0.968569
     1395.100000       0.968021
     1395.200000       0.967481
     1395.300000       0.966954
     1395.400000       0.966439
     1395.500000       0.965949
     1395.600000       0.965476
     1395.700000       0.965026
     1395.800000       0.964599
     1395.900000       0.964194
     1396.000000       0.963801
     1396.100000       0.963426
     1396.200000       0.963066
     1396.300000       0.962719
     1396.400000       0.962379
     1396.500000       0.962049
     1396.600000       0.961726
     1396.700000       0.961414
     1396.800000       0.961104
     1396.900000       0.960806
     1397.000000       0.960521
     1397.100000       0.960244
     1397.200000       0.959979
     1397.300000       0.959729
     1397.400000       0.959496
     1397.500000       0.959279
     1397.600000       0.959082
     1397.700000       0.958904
     1397.800000       0.958746
     1397.900000       0.958609
     1398.000000       0.958484
     1398.100000       0.958377
     1398.200000       0.958279
     1398.300000       0.958197
     1398.400000       0.958122
     1398.500000       0.958062
     1398.600000       0.958004
     1398.700000       0.957957
     1398.800000       0.957919
     1398.900000       0.957889
     1399.000000       0.957867
     1399.100000       0.957857
     1399.200000       0.957857
     1399.300000       0.957864
     1399.400000       0.957877
     1399.500000       0.957905
     1399.600000       0.957942
     1399.700000       0.957992
     1399.800000       0.958052
     1399.900000       0.958125
     1400.000000       0.958200
     1400.100000       0.958282
     1400.200000       0.958375
     1400.300000       0.958465
     1400.400000       0.958565
     1400.500000       0.958662
     1400.600000       0.958762
     1400.700000       0.958860
     1400.800000       0.958960
     1400.900000       0.959060
     1401.000000       0.959163
     1401.100000       0.959263
     1401.200000       0.959365
     1401.300000       0.959465
     1401.400000       0.959568
     1401.500000       0.959673
     1401.600000       0.959773
     1401.700000       0.959878
     1401.800000       0.959986
     1401.900000       0.960096
     1402.000000       0.960206
     1402.100000       0.960318
     1402.200000       0.960431
     1402.300000       0.960556
     1402.400000       0.960678
     1402.500000       0.960813
     1402.600000       0.960951
     1402.700000       0.961089
     1402.800000       0.961241
     1402.900000       0.961394
     1403.000000       0.961556
     1403.100000       0.961726
     1403.200000       0.961897
     1403.300000       0.962077
     1403.400000       0.962259
     1403.500000       0.962449
     1403.600000       0.962647
     1403.700000       0.962852
     1403.800000       0.963059
     1403.900000       0.963267
     1404.000000       0.963484
     1404.100000       0.963700
     1404.200000       0.963915
     1404.300000       0.964130
     1404.400000       0.964340
     1404.500000       0.964552
     1404.600000       0.964750
     1404.700000       0.964950
     1404.800000       0.965140
     1404.900000       0.965333
     1405.000000       0.965518
     1405.100000       0.965695
     1405.200000       0.965870
     1405.300000       0.966045
     1405.400000       0.966220
     1405.500000       0.966393
     1405.600000       0.966563
     1405.700000       0.966731
     1405.800000       0.966898
     1405.900000       0.967066
     1406.000000       0.967231
     1406.100000       0.967388
     1406.200000       0.967548
     1406.300000       0.967698
     1406.400000       0.967856
     1406.500000       0.967998
     1406.600000       0.968138
     1406.700000       0.968268
     1406.800000       0.968398
     1406.900000       0.968521
     1407.000000       0.968636
     1407.100000       0.968751
     1407.200000       0.968861
     1407.300000       0.968961
     1407.400000       0.969063
     1407.500000       0.969159
     1407.600000       0.969248
     1407.700000       0.969336
     1407.800000       0.969421
     1407.900000       0.969501
     1408.000000       0.969579
     1408.100000       0.969659
     1408.200000       0.969729
     1408.300000       0.969801
     1408.400000       0.969881
     1408.500000       0.969954
     1408.600000       0.970029
     1408.700000       0.970109
     1408.800000       0.970186
     1408.900000       0.970268
     1409.000000       0.970346
     1409.100000       0.970433
     1409.200000       0.970518
     1409.300000       0.970608
     1409.400000       0.970704
     1409.500000       0.970799
     1409.600000       0.970896
     1409.700000       0.970998
     1409.800000       0.971101
     1409.900000       0.971208
     1410.000000       0.971311
     1410.100000       0.971413
     1410.200000       0.971508
     1410.300000       0.971603
     1410.400000       0.971683
     1410.500000       0.971761
     1410.600000       0.971818
     1410.700000       0.971868
     1410.800000       0.971906
     1410.900000       0.971931
     1411.000000       0.971946
     1411.100000       0.971956
     1411.200000       0.971953
     1411.300000       0.971946
     1411.400000       0.971933
     1411.500000       0.971918
     1411.600000       0.971893
     1411.700000       0.971870
     1411.800000       0.971840
     1411.900000       0.971805
     1412.000000       0.971768
     1412.100000       0.971718
     1412.200000       0.971670
     1412.300000       0.971610
     1412.400000       0.971553
     1412.500000       0.971483
     1412.600000       0.971405
     1412.700000       0.971320
     1412.800000       0.971225
     1412.900000       0.971128
     1413.000000       0.971025
     1413.100000       0.970920
     1413.200000       0.970815
     1413.300000       0.970710
     1413.400000       0.970605
     1413.500000       0.970502
     1413.600000       0.970397
     1413.700000       0.970305
     1413.800000       0.970212
     1413.900000       0.970127
     1414.000000       0.970042
     1414.100000       0.969960
     1414.200000       0.969877
     1414.300000       0.969800
     1414.400000       0.969719
     1414.500000       0.969644
     1414.600000       0.969567
     1414.700000       0.969492
     1414.800000       0.969412
     1414.900000       0.969337
     1415.000000       0.969267
     1415.100000       0.969187
     1415.200000       0.969112
     1415.300000       0.969034
     1415.400000       0.968962
     1415.500000       0.968884
     1415.600000       0.968812
     1415.700000       0.968734
     1415.800000       0.968659
     1415.900000       0.968581
     1416.000000       0.968499
     1416.100000       0.968416
     1416.200000       0.968334
     1416.300000       0.968244
     1416.400000       0.968151
     1416.500000       0.968051
     1416.600000       0.967946
     1416.700000       0.967839
     1416.800000       0.967723
     1416.900000       0.967606
     1417.000000       0.967491
     1417.100000       0.967381
     1417.200000       0.967278
     1417.300000       0.967183
     1417.400000       0.967098
     1417.500000       0.967031
     1417.600000       0.966981
     1417.700000       0.966951
     1417.800000       0.966938
     1417.900000       0.966940
     1418.000000       0.966955
     1418.100000       0.966983
     1418.200000       0.967015
     1418.300000       0.967050
     1418.400000       0.967098
     1418.500000       0.967135
     1418.600000       0.967173
     1418.700000       0.967210
     1418.800000       0.967245
     1418.900000       0.967277
     1419.000000       0.967305
     1419.100000       0.967340
     1419.200000       0.967372
     1419.300000       0.967407
     1419.400000       0.967447
     1419.500000       0.967492
     1419.600000       0.967540
     1419.700000       0.967595
     1419.800000       0.967660
     1419.900000       0.967722
     1420.000000       0.967797
     1420.100000       0.967869
     1420.200000       0.967942
     1420.300000       0.968019
     1420.400000       0.968089
     1420.500000       0.968164
     1420.600000       0.968237
     1420.700000       0.968304
     1420.800000       0.968369
     1420.900000       0.968434
     1421.000000       0.968494
     1421.100000       0.968554
     1421.200000       0.968614
     1421.300000       0.968679
     1421.400000       0.968741
     1421.500000       0.968806
     1421.600000       0.968879
     1421.700000       0.968946
     1421.800000       0.969019
     1421.900000       0.969091
     1422.000000       0.969164
     1422.100000       0.969236
     1422.200000       0.969301
     1422.300000       0.969366
     1422.400000       0.969423
     1422.500000       0.969476
     1422.600000       0.969521
     1422.700000       0.969556
     1422.800000       0.969581
     1422.900000       0.969606
     1423.000000       0.969623
     1423.100000       0.969641
     1423.200000       0.969658
     1423.300000       0.969678
     1423.400000       0.969698
     1423.500000       0.969728
     1423.600000       0.969766
     1423.700000       0.969808
     1423.800000       0.969866
     1423.900000       0.969921
     1424.000000       0.969983
     1424.100000       0.970046
     1424.200000       0.970111
     1424.300000       0.970171
     1424.400000       0.970226
     1424.500000       0.970273
     1424.600000       0.970311
     1424.700000       0.970338
     1424.800000       0.970361
     1424.900000       0.970368
     1425.000000       0.970371
     1425.100000       0.970371
     1425.200000       0.970361
     1425.300000       0.970348
     1425.400000       0.970333
     1425.500000       0.970311
     1425.600000       0.970288
     1425.700000       0.970266
     1425.800000       0.970243
     1425.900000       0.970218
     1426.000000       0.970188
     1426.100000       0.970156
     1426.200000       0.970128
     1426.300000       0.970096
     1426.400000       0.970061
     1426.500000       0.970028
     1426.600000       0.969991
     1426.700000       0.969948
     1426.800000       0.969906
     1426.900000       0.969853
     1427.000000       0.969791
     1427.100000       0.969716
     1427.200000       0.969621
     1427.300000       0.969506
     1427.400000       0.969363
     1427.500000       0.969198
     1427.600000       0.968996
     1427.700000       0.968756
     1427.800000       0.968486
     1427.900000       0.968193
     1428.000000       0.967878
     1428.100000       0.967548
     1428.200000       0.967208
     1428.300000       0.966856
     1428.400000       0.966508
     1428.500000       0.966163
     1428.600000       0.965826
     1428.700000       0.965493
     1428.800000       0.965178
     1428.900000       0.964866
     1429.000000       0.964561
     1429.100000       0.964258
     1429.200000       0.963953
     1429.300000       0.963653
     1429.400000       0.963340
     1429.500000       0.963030
     1429.600000       0.962708
     1429.700000       0.962378
     1429.800000       0.962035
     1429.900000       0.961688
     1430.000000       0.961325
     1430.100000       0.960950
     1430.200000       0.960568
     1430.300000       0.960170
     1430.400000       0.959760
     1430.500000       0.959343
     1430.600000       0.958903
     1430.700000       0.958453
     1430.800000       0.957983
     1430.900000       0.957505
     1431.000000       0.957023
     1431.100000       0.956523
     1431.200000       0.956015
     1431.300000       0.955505
     1431.400000       0.954988
     1431.500000       0.954465
     1431.600000       0.953935
     1431.700000       0.953405
     1431.800000       0.952878
     1431.900000       0.952353
     1432.000000       0.951832
     1432.100000       0.951320
     1432.200000       0.950812
     1432.300000       0.950320
     1432.400000       0.949847
     1432.500000       0.949387
     1432.600000       0.948955
     1432.700000       0.948542
     1432.800000       0.948152
     1432.900000       0.947777
     1433.000000       0.947427
     1433.100000       0.947090
     1433.200000       0.946770
     1433.300000       0.946457
     1433.400000       0.946155
     1433.500000       0.945862
     1433.600000       0.945580
     1433.700000       0.945305
     1433.800000       0.945032
     1433.900000       0.944767
     1434.000000       0.944495
     1434.100000       0.944227
     1434.200000       0.943955
     1434.300000       0.943680
     1434.400000       0.943395
     1434.500000       0.943100
     1434.600000       0.942795
     1434.700000       0.942480
     1434.800000       0.942152
     1434.900000       0.941817
     1435.000000       0.941490
     1435.100000       0.941152
     1435.200000       0.940827
     1435.300000       0.940510
     1435.400000       0.940207
     1435.500000       0.939920
     1435.600000       0.939657
     1435.700000       0.939420
     1435.800000       0.939207
     1435.900000       0.939005
     1436.000000       0.938832
     1436.100000       0.938670
     1436.200000       0.938527
     1436.300000       0.938400
     1436.400000       0.938280
     1436.500000       0.938175
     1436.600000       0.938080
     1436.700000       0.938000
     1436.800000       0.937922
     1436.900000       0.937855
     1437.000000       0.937790
     1437.100000       0.937735
     1437.200000       0.937682
     1437.300000       0.937635
     1437.400000       0.937592
     1437.500000       0.937550
     1437.600000       0.937510
     1437.700000       0.937468
     1437.800000       0.937430
     1437.900000       0.937388
     1438.000000       0.937342
     1438.100000       0.937298
     1438.200000       0.937240
     1438.300000       0.937183
     1438.400000       0.937110
     1438.500000       0.937033
     1438.600000       0.936935
     1438.700000       0.936830
     1438.800000       0.936713
     1438.900000       0.936580
     1439.000000       0.936440
     1439.100000       0.936295
     1439.200000       0.936148
     1439.300000       0.935990
     1439.400000       0.935835
     1439.500000       0.935678
     1439.600000       0.935520
     1439.700000       0.935365
     1439.800000       0.935210
     1439.900000       0.935060
     1440.000000       0.934905
     1440.100000       0.934752
     1440.200000       0.934600
     1440.300000       0.934450
     1440.400000       0.934295
     1440.500000       0.934147
     1440.600000       0.933990
     1440.700000       0.933840
     1440.800000       0.933682
     1440.900000       0.933532
     1441.000000       0.933375
     1441.100000       0.933225
     1441.200000       0.933072
     1441.300000       0.932917
     1441.400000       0.932772
     1441.500000       0.932627
     1441.600000       0.932487
     1441.700000       0.932355
     1441.800000       0.932217
     1441.900000       0.932082
     1442.000000       0.931942
     1442.100000       0.931794
     1442.200000       0.931642
     1442.300000       0.931472
     1442.400000       0.931292
     1442.500000       0.931092
     1442.600000       0.930874
     1442.700000       0.930634
     1442.800000       0.930372
     1442.900000       0.930092
     1443.000000       0.929802
     1443.100000       0.929504
     1443.200000       0.929204
     1443.300000       0.928894
     1443.400000       0.928592
     1443.500000       0.928292
     1443.600000       0.928002
     1443.700000       0.927724
     1443.800000       0.927452
     1443.900000       0.927182
     1444.000000       0.926919
     1444.100000       0.926659
     1444.200000       0.926389
     1444.300000       0.926117
     1444.400000       0.925834
     1444.500000       0.925542
     1444.600000       0.925237
     1444.700000       0.924912
     1444.800000       0.924574
     1444.900000       0.924227
     1445.000000       0.923872
     1445.100000       0.923514
     1445.200000       0.923157
     1445.300000       0.922797
     1445.400000       0.922442
     1445.500000       0.922099
     1445.600000       0.921767
     1445.700000       0.921449
     1445.800000       0.921142
     1445.900000       0.920842
     1446.000000       0.920549
     1446.100000       0.920262
     1446.200000       0.919979
     1446.300000       0.919699
     1446.400000       0.919409
     1446.500000       0.919119
     1446.600000       0.918827
     1446.700000       0.918519
     1446.800000       0.918202
     1446.900000       0.917882
     1447.000000       0.917552
     1447.100000       0.917217
     1447.200000       0.916874
     1447.300000       0.916519
     1447.400000       0.916162
     1447.500000       0.915799
     1447.600000       0.915427
     1447.700000       0.915047
     1447.800000       0.914659
     1447.900000       0.914272
     1448.000000       0.913875
     1448.100000       0.913472
     1448.200000       0.913065
     1448.300000       0.912655
     1448.400000       0.912240
     1448.500000       0.911820
     1448.600000       0.911395
     1448.700000       0.910975
     1448.800000       0.910540
     1448.900000       0.910117
     1449.000000       0.909692
     1449.100000       0.909267
     1449.200000       0.908850
     1449.300000       0.908440
     1449.400000       0.908035
     1449.500000       0.907643
     1449.600000       0.907265
     1449.700000       0.906898
     1449.800000       0.906540
     1449.900000       0.906185
     1450.000000       0.905835
     1450.100000       0.905478
     1450.200000       0.905113
     1450.300000       0.904733
     1450.400000       0.904338
     1450.500000       0.903913
     1450.600000       0.903466
     1450.700000       0.902985
     1450.800000       0.902473
     1450.900000       0.901936
     1451.000000       0.901371
     1451.100000       0.900786
     1451.200000       0.900181
     1451.300000       0.899563
     1451.400000       0.898926
     1451.500000       0.898273
     1451.600000       0.897608
     1451.700000       0.896938
     1451.800000       0.896253
     1451.900000       0.895568
     1452.000000       0.894873
     1452.100000       0.894186
     1452.200000       0.893493
     1452.300000       0.892806
     1452.400000       0.892128
     1452.500000       0.891458
     1452.600000       0.890796
     1452.700000       0.890148
     1452.800000       0.889516
     1452.900000       0.888898
     1453.000000       0.888298
     1453.100000       0.887711
     1453.200000       0.887134
     1453.300000       0.886579
     1453.400000       0.886043
     1453.500000       0.885526
     1453.600000       0.885028
     1453.700000       0.884551
     1453.800000       0.884093
     1453.900000       0.883651
     1454.000000       0.883224
     1454.100000       0.882816
     1454.200000       0.882411
     1454.300000       0.882016
     1454.400000       0.881631
     1454.500000       0.881248
     1454.600000       0.880876
     1454.700000       0.880503
     1454.800000       0.880131
     1454.900000       0.879763
     1455.000000       0.879411
     1455.100000       0.879061
     1455.200000       0.878713
     1455.300000       0.878383
     1455.400000       0.878068
     1455.500000       0.877763
     1455.600000       0.877473
     1455.700000       0.877203
     1455.800000       0.876948
     1455.900000       0.876706
     1456.000000       0.876475
     1456.100000       0.876248
     1456.200000       0.876025
     1456.300000       0.875810
     1456.400000       0.875595
     1456.500000       0.875378
     1456.600000       0.875163
     1456.700000       0.874938
     1456.800000       0.874720
     1456.900000       0.874493
     1457.000000       0.874273
     1457.100000       0.874055
     1457.200000       0.873845
     1457.300000       0.873642
     1457.400000       0.873457
     1457.500000       0.873285
     1457.600000       0.873127
     1457.700000       0.872992
     1457.800000       0.872875
     1457.900000       0.872767
     1458.000000       0.872680
     1458.100000       0.872602
     1458.200000       0.872535
     1458.300000       0.872470
     1458.400000       0.872417
     1458.500000       0.872364
     1458.600000       0.872317
     1458.700000       0.872274
     1458.800000       0.872227
     1458.900000       0.872184
     1459.000000       0.872157
     1459.100000       0.872127
     1459.200000       0.872114
     1459.300000       0.872107
     1459.400000       0.872114
     1459.500000       0.872136
     1459.600000       0.872177
     1459.700000       0.872241
     1459.800000       0.872321
     1459.900000       0.872421
     1460.000000       0.872541
     1460.100000       0.872686
     1460.200000       0.872849
     1460.300000       0.873044
     1460.400000       0.873256
     1460.500000       0.873499
     1460.600000       0.873769
     1460.700000       0.874069
     1460.800000       0.874401
     1460.900000       0.874753
     1461.000000       0.875128
     1461.100000       0.875521
     1461.200000       0.875936
     1461.300000       0.876356
     1461.400000       0.876793
     1461.500000       0.877238
     1461.600000       0.877691
     1461.700000       0.878151
     1461.800000       0.878626
     1461.900000       0.879103
     1462.000000       0.879596
     1462.100000       0.880103
     1462.200000       0.880625
     1462.300000       0.881173
     1462.400000       0.881743
     1462.500000       0.882343
     1462.600000       0.882963
     1462.700000       0.883623
     1462.800000       0.884308
     1462.900000       0.885018
     1463.000000       0.885738
     1463.100000       0.886473
     1463.200000       0.887213
     1463.300000       0.887953
     1463.400000       0.888685
     1463.500000       0.889408
     1463.600000       0.890112
     1463.700000       0.890803
     1463.800000       0.891467
     1463.900000       0.892112
     1464.000000       0.892737
     1464.100000       0.893342
     1464.200000       0.893925
     1464.300000       0.894482
     1464.400000       0.895017
     1464.500000       0.895532
     1464.600000       0.896010
     1464.700000       0.896465
     1464.800000       0.896900
     1464.900000       0.897315
     1465.000000       0.897712
     1465.100000       0.898100
     1465.200000       0.898485
     1465.300000       0.898860
     1465.400000       0.899239
     1465.500000       0.899622
     1465.600000       0.900019
     1465.700000       0.900419
     1465.800000       0.900834
     1465.900000       0.901249
     1466.000000       0.901667
     1466.100000       0.902082
     1466.200000       0.902487
     1466.300000       0.902882
     1466.400000       0.903259
     1466.500000       0.903617
     1466.600000       0.903952
     1466.700000       0.904254
     1466.800000       0.904531
     1466.900000       0.904779
     1467.000000       0.905004
     1467.100000       0.905204
     1467.200000       0.905371
     1467.300000       0.905524
     1467.400000       0.905641
     1467.500000       0.905734
     1467.600000       0.905799
     1467.700000       0.905841
     1467.800000       0.905854
     1467.900000       0.905849
     1468.000000       0.905834
     1468.100000       0.905799
     1468.200000       0.905764
     1468.300000       0.905726
     1468.400000       0.905689
     1468.500000       0.905661
     1468.600000       0.905641
     1468.700000       0.905631
     1468.800000       0.905639
     1468.900000       0.905656
     1469.000000       0.905686
     1469.100000       0.905731
     1469.200000       0.905786
     1469.300000       0.905859
     1469.400000       0.905933
     1469.500000       0.906034
     1469.600000       0.906143
     1469.700000       0.906269
     1469.800000       0.906404
     1469.900000       0.906554
     1470.000000       0.906716
     1470.100000       0.906886
     1470.200000       0.907071
     1470.300000       0.907261
     1470.400000       0.907463
     1470.500000       0.907674
     1470.600000       0.907891
     1470.700000       0.908121
     1470.800000       0.908358
     1470.900000       0.908598
     1471.000000       0.908848
     1471.100000       0.909106
     1471.200000       0.909363
     1471.300000       0.909631
     1471.400000       0.909901
     1471.500000       0.910179
     1471.600000       0.910464
     1471.700000       0.910751
     1471.800000       0.911041
     1471.900000       0.911341
     1472.000000       0.911649
     1472.100000       0.911964
     1472.200000       0.912289
     1472.300000       0.912626
     1472.400000       0.912979
     1472.500000       0.913341
     1472.600000       0.913719
     1472.700000       0.914119
     1472.800000       0.914531
     1472.900000       0.914964
     1473.000000       0.915404
     1473.100000       0.915856
     1473.200000       0.916319
     1473.300000       0.916789
     1473.400000       0.917269
     1473.500000       0.917756
     1473.600000       0.918249
     1473.700000       0.918744
     1473.800000       0.919249
     1473.900000       0.919747
     1474.000000       0.920244
     1474.100000       0.920739
     1474.200000       0.921217
     1474.300000       0.921692
     1474.400000       0.922154
     1474.500000       0.922592
     1474.600000       0.923014
     1474.700000       0.923417
     1474.800000       0.923799
     1474.900000       0.924169
     1475.000000       0.924532
     1475.100000       0.924887
     1475.200000       0.925247
     1475.300000       0.925617
     1475.400000       0.926005
     1475.500000       0.926397
     1475.600000       0.926825
     1475.700000       0.927272
     1475.800000       0.927740
     1475.900000       0.928230
     1476.000000       0.928737
     1476.100000       0.929245
     1476.200000       0.929762
     1476.300000       0.930287
     1476.400000       0.930805
     1476.500000       0.931312
     1476.600000       0.931817
     1476.700000       0.932305
     1476.800000       0.932782
     1476.900000       0.933250
     1477.000000       0.933705
     1477.100000       0.934152
     1477.200000       0.934589
     1477.300000       0.935020
     1477.400000       0.935447
     1477.500000       0.935867
     1477.600000       0.936282
     1477.700000       0.936694
     1477.800000       0.937099
     1477.900000       0.937504
     1478.000000       0.937899
     1478.100000       0.938289
     1478.200000       0.938664
     1478.300000       0.939039
     1478.400000       0.939402
     1478.500000       0.939751
     1478.600000       0.940089
     1478.700000       0.940414
     1478.800000       0.940719
     1478.900000       0.941014
     1479.000000       0.941299
     1479.100000       0.941559
     1479.200000       0.941813
     1479.300000       0.942048
     1479.400000       0.942268
     1479.500000       0.942466
     1479.600000       0.942643
     1479.700000       0.942803
     1479.800000       0.942945
     1479.900000       0.943073
     1480.000000       0.943175
     1480.100000       0.943268
     1480.200000       0.943345
     1480.300000       0.943410
     1480.400000       0.943453
     1480.500000       0.943487
     1480.600000       0.943510
     1480.700000       0.943515
     1480.800000       0.943512
     1480.900000       0.943497
     1481.000000       0.943477
     1481.100000       0.943449
     1481.200000       0.943409
     1481.300000       0.943372
     1481.400000       0.943329
     1481.500000       0.943281
     1481.600000       0.943234
     1481.700000       0.943186
     1481.800000       0.943131
     1481.900000       0.943074
     1482.000000       0.943008
     1482.100000       0.942933
     1482.200000       0.942841
     1482.300000       0.942731
     1482.400000       0.942606
     1482.500000       0.942456
     1482.600000       0.942273
     1482.700000       0.942065
     1482.800000       0.941825
     1482.900000       0.941565
     1483.000000       0.941285
     1483.100000       0.940985
     1483.200000       0.940667
     1483.300000       0.940335
     1483.400000       0.939992
     1483.500000       0.939640
     1483.600000       0.939280
     1483.700000       0.938912
     1483.800000       0.938537
     1483.900000       0.938167
     1484.000000       0.937790
     1484.100000       0.937412
     1484.200000       0.937034
     1484.300000       0.936664
     1484.400000       0.936297
     1484.500000       0.935932
     1484.600000       0.935577
     1484.700000       0.935229
     1484.800000       0.934889
     1484.900000       0.934547
     1485.000000       0.934191
     1485.100000       0.933827
     1485.200000       0.933449
     1485.300000       0.933046
     1485.400000       0.932619
     1485.500000       0.932156
     1485.600000       0.931649
     1485.700000       0.931099
     1485.800000       0.930514
     1485.900000       0.929889
     1486.000000       0.929244
     1486.100000       0.928574
     1486.200000       0.927889
     1486.300000       0.927194
     1486.400000       0.926491
     1486.500000       0.925789
     1486.600000       0.925091
     1486.700000       0.924406
     1486.800000       0.923731
     1486.900000       0.923066
     1487.000000       0.922408
     1487.100000       0.921761
     1487.200000       0.921118
     1487.300000       0.920486
     1487.400000       0.919861
     1487.500000       0.919251
     1487.600000       0.918646
     1487.700000       0.918049
     1487.800000       0.917456
     1487.900000       0.916874
     1488.000000       0.916291
     1488.100000       0.915706
     1488.200000       0.915121
     1488.300000       0.914529
     1488.400000       0.913926
     1488.500000       0.913316
     1488.600000       0.912691
     1488.700000       0.912049
     1488.800000       0.911401
     1488.900000       0.910734
     1489.000000       0.910061
     1489.100000       0.909379
     1489.200000       0.908691
     1489.300000       0.908002
     1489.400000       0.907309
     1489.500000       0.906622
     1489.600000       0.905932
     1489.700000       0.905254
     1489.800000       0.904569
     1489.900000       0.903897
     1490.000000       0.903222
     1490.100000       0.902554
     1490.200000       0.901892
     1490.300000       0.901232
     1490.400000       0.900574
     1490.500000       0.899917
     1490.600000       0.899265
     1490.700000       0.898617
     1490.800000       0.897975
     1490.900000       0.897335
     1491.000000       0.896697
     1491.100000       0.896067
     1491.200000       0.895437
     1491.300000       0.894815
     1491.400000       0.894195
     1491.500000       0.893577
     1491.600000       0.892967
     1491.700000       0.892362
     1491.800000       0.891760
     1491.900000       0.891160
     1492.000000       0.890560
     1492.100000       0.889953
     1492.200000       0.889350
     1492.300000       0.888735
     1492.400000       0.888118
     1492.500000       0.887487
     1492.600000       0.886850
     1492.700000       0.886200
     1492.800000       0.885535
     1492.900000       0.884868
     1493.000000       0.884190
     1493.100000       0.883513
     1493.200000       0.882835
     1493.300000       0.882158
     1493.400000       0.881485
     1493.500000       0.880818
     1493.600000       0.880155
     1493.700000       0.879510
     1493.800000       0.878873
     1493.900000       0.878248
     1494.000000       0.877630
     1494.100000       0.877025
     1494.200000       0.876430
     1494.300000       0.875848
     1494.400000       0.875280
     1494.500000       0.874720
     1494.600000       0.874175
     1494.700000       0.873648
     1494.800000       0.873133
     1494.900000       0.872620
     1495.000000       0.872123
     1495.100000       0.871630
     1495.200000       0.871145
     1495.300000       0.870665
     1495.400000       0.870182
     1495.500000       0.869705
     1495.600000       0.869228
     1495.700000       0.868745
     1495.800000       0.868265
     1495.900000       0.867780
     1496.000000       0.867295
     1496.100000       0.866807
     1496.200000       0.866312
     1496.300000       0.865820
     1496.400000       0.865317
     1496.500000       0.864817
     1496.600000       0.864307
     1496.700000       0.863797
     1496.800000       0.863280
     1496.900000       0.862760
     1497.000000       0.862237
     1497.100000       0.861712
     1497.200000       0.861187
     1497.300000       0.860660
     1497.400000       0.860135
     1497.500000       0.859607
     1497.600000       0.859085
     1497.700000       0.858565
     1497.800000       0.858050
     1497.900000       0.857537
     1498.000000       0.857027
     1498.100000       0.856515
     1498.200000       0.856012
     1498.300000       0.855515
     1498.400000       0.855017
     1498.500000       0.854525
     1498.600000       0.854040
     1498.700000       0.853560
     1498.800000       0.853082
     1498.900000       0.852610
     1499.000000       0.852147
     1499.100000       0.851685
     1499.200000       0.851232
     1499.300000       0.850780
     1499.400000       0.850333
     1499.500000       0.849893
     1499.600000       0.849457
     1499.700000       0.849028
     1499.800000       0.848603
     1499.900000       0.848182
     1500.000000       0.847768
     1500.100000       0.847352
     1500.200000       0.846940
     1500.300000       0.846533
     1500.400000       0.846128
     1500.500000       0.845718
     1500.600000       0.845315
     1500.700000       0.844910
     1500.800000       0.844510
     1500.900000       0.844108
     1501.000000       0.843710
     1501.100000       0.843320
     1501.200000       0.842938
     1501.300000       0.842558
     1501.400000       0.842190
     1501.500000       0.841833
     1501.600000       0.841483
     1501.700000       0.841150
     1501.800000       0.840830
     1501.900000       0.840515
     1502.000000       0.840203
     1502.100000       0.839900
     1502.200000       0.839590
     1502.300000       0.839278
     1502.400000       0.838963
     1502.500000       0.838638
     1502.600000       0.838303
     1502.700000       0.837950
     1502.800000       0.837593
     1502.900000       0.837225
     1503.000000       0.836853
     1503.100000       0.836480
     1503.200000       0.836108
     1503.300000       0.835740
     1503.400000       0.835380
     1503.500000       0.835030
     1503.600000       0.834693
     1503.700000       0.834368
     1503.800000       0.834065
     1503.900000       0.833768
     1504.000000       0.833485
     1504.100000       0.833215
     1504.200000       0.832958
     1504.300000       0.832705
     1504.400000       0.832468
     1504.500000       0.832235
     1504.600000       0.832010
     1504.700000       0.831798
     1504.800000       0.831590
     1504.900000       0.831398
     1505.000000       0.831210
     1505.100000       0.831038
     1505.200000       0.830875
     1505.300000       0.830728
     1505.400000       0.830588
     1505.500000       0.830470
     1505.600000       0.830368
     1505.700000       0.830288
     1505.800000       0.830223
     1505.900000       0.830175
     1506.000000       0.830138
     1506.100000       0.830115
     1506.200000       0.830113
     1506.300000       0.830110
     1506.400000       0.830128
     1506.500000       0.830150
     1506.600000       0.830188
     1506.700000       0.830230
     1506.800000       0.830283
     1506.900000       0.830345
     1507.000000       0.830413
     1507.100000       0.830480
     1507.200000       0.830558
     1507.300000       0.830643
     1507.400000       0.830728
     1507.500000       0.830813
     1507.600000       0.830901
     1507.700000       0.830993
     1507.800000       0.831086
     1507.900000       0.831188
     1508.000000       0.831298
     1508.100000       0.831416
     1508.200000       0.831543
     1508.300000       0.831686
     1508.400000       0.831846
     1508.500000       0.832026
     1508.600000       0.832228
     1508.700000       0.832451
     1508.800000       0.832698
     1508.900000       0.832963
     1509.000000       0.833248
     1509.100000       0.833536
     1509.200000       0.833841
     1509.300000       0.834148
     1509.400000       0.834463
     1509.500000       0.834778
     1509.600000       0.835101
     1509.700000       0.835408
     1509.800000       0.835726
     1509.900000       0.836041
     1510.000000       0.836348
     1510.100000       0.836661
     1510.200000       0.836971
     1510.300000       0.837279
     1510.400000       0.837588
     1510.500000       0.837898
     1510.600000       0.838216
     1510.700000       0.838526
     1510.800000       0.838839
     1510.900000       0.839159
     1511.000000       0.839471
     1511.100000       0.839786
     1511.200000       0.840101
     1511.300000       0.840414
     1511.400000       0.840729
     1511.500000       0.841041
     1511.600000       0.841354
     1511.700000       0.841659
     1511.800000       0.841969
     1511.900000       0.842271
     1512.000000       0.842574
     1512.100000       0.842869
     1512.200000       0.843171
     1512.300000       0.843464
     1512.400000       0.843759
     1512.500000       0.844049
     1512.600000       0.844339
     1512.700000       0.844624
     1512.800000       0.844904
     1512.900000       0.845181
     1513.000000       0.845453
     1513.100000       0.845719
     1513.200000       0.845978
     1513.300000       0.846229
     1513.400000       0.846468
     1513.500000       0.846699
     1513.600000       0.846913
     1513.700000       0.847116
     1513.800000       0.847303
     1513.900000       0.847476
     1514.000000       0.847631
     1514.100000       0.847773
     1514.200000       0.847893
     1514.300000       0.847998
     1514.400000       0.848076
     1514.500000       0.848131
     1514.600000       0.848163
     1514.700000       0.848163
     1514.800000       0.848146
     1514.900000       0.848098
     1515.000000       0.848038
     1515.100000       0.847958
     1515.200000       0.847863
     1515.300000       0.847750
     1515.400000       0.847635
     1515.500000       0.847500
     1515.600000       0.847365
     1515.700000       0.847215
     1515.800000       0.847060
     1515.900000       0.846893
     1516.000000       0.846720
     1516.100000       0.846538
     1516.200000       0.846340
     1516.300000       0.846138
     1516.400000       0.845920
     1516.500000       0.845683
     1516.600000       0.845433
     1516.700000       0.845165
     1516.800000       0.844885
     1516.900000       0.844590
     1517.000000       0.844282
     1517.100000       0.843962
     1517.200000       0.843635
     1517.300000       0.843300
     1517.400000       0.842960
     1517.500000       0.842612
     1517.600000       0.842262
     1517.700000       0.841905
     1517.800000       0.841545
     1517.900000       0.841192
     1518.000000       0.840840
     1518.100000       0.840492
     1518.200000       0.840147
     1518.300000       0.839815
     1518.400000       0.839492
     1518.500000       0.839179
     1518.600000       0.838889
     1518.700000       0.838614
     1518.800000       0.838354
     1518.900000       0.838109
     1519.000000       0.837879
     1519.100000       0.837659
     1519.200000       0.837447
     1519.300000       0.837247
     1519.400000       0.837052
     1519.500000       0.836866
     1519.600000       0.836681
     1519.700000       0.836502
     1519.800000       0.836334
     1519.900000       0.836161
     1520.000000       0.836001
     1520.100000       0.835846
     1520.200000       0.835691
     1520.300000       0.835546
     1520.400000       0.835416
     1520.500000       0.835284
     1520.600000       0.835169
     1520.700000       0.835061
     1520.800000       0.834964
     1520.900000       0.834874
     1521.000000       0.834789
     1521.100000       0.834713
     1521.200000       0.834643
     1521.300000       0.834576
     1521.400000       0.834511
     1521.500000       0.834451
     1521.600000       0.834391
     1521.700000       0.834338
     1521.800000       0.834281
     1521.900000       0.834226
     1522.000000       0.834166
     1522.100000       0.834103
     1522.200000       0.834038
     1522.300000       0.833971
     1522.400000       0.833891
     1522.500000       0.833805
     1522.600000       0.833716
     1522.700000       0.833613
     1522.800000       0.833503
     1522.900000       0.833390
     1523.000000       0.833285
     1523.100000       0.833185
     1523.200000       0.833098
     1523.300000       0.833023
     1523.400000       0.832978
     1523.500000       0.832950
     1523.600000       0.832958
     1523.700000       0.832998
     1523.800000       0.833073
     1523.900000       0.833168
     1524.000000       0.833288
     1524.100000       0.833423
     1524.200000       0.833570
     1524.300000       0.833725
     1524.400000       0.833882
     1524.500000       0.834037
     1524.600000       0.834190
     1524.700000       0.834335
     1524.800000       0.834470
     1524.900000       0.834597
     1525.000000       0.834720
     1525.100000       0.834837
     1525.200000       0.834945
     1525.300000       0.835047
     1525.400000       0.835145
     1525.500000       0.835237
     1525.600000       0.835325
     1525.700000       0.835410
     1525.800000       0.835489
     1525.900000       0.835567
     1526.000000       0.835644
     1526.100000       0.835727
     1526.200000       0.835822
     1526.300000       0.835912
     1526.400000       0.836022
     1526.500000       0.836144
     1526.600000       0.836277
     1526.700000       0.836432
     1526.800000       0.836599
     1526.900000       0.836772
     1527.000000       0.836957
     1527.100000       0.837139
     1527.200000       0.837322
     1527.300000       0.837496
     1527.400000       0.837664
     1527.500000       0.837821
     1527.600000       0.837962
     1527.700000       0.838079
     1527.800000       0.838181
     1527.900000       0.838264
     1528.000000       0.838334
     1528.100000       0.838396
     1528.200000       0.838441
     1528.300000       0.838479
     1528.400000       0.838509
     1528.500000       0.838526
     1528.600000       0.838544
     1528.700000       0.838551
     1528.800000       0.838554
     1528.900000       0.838554
     1529.000000       0.838541
     1529.100000       0.838521
     1529.200000       0.838491
     1529.300000       0.838446
     1529.400000       0.838389
     1529.500000       0.838316
     1529.600000       0.838226
     1529.700000       0.838119
     1529.800000       0.838001
     1529.900000       0.837864
     1530.000000       0.837716
     1530.100000       0.837561
     1530.200000       0.837399
     1530.300000       0.837229
     1530.400000       0.837056
     1530.500000       0.836881
     1530.600000       0.836704
     1530.700000       0.836534
     1530.800000       0.836356
     1530.900000       0.836179
     1531.000000       0.836004
     1531.100000       0.835819
     1531.200000       0.835634
     1531.300000       0.835439
     1531.400000       0.835236
     1531.500000       0.835029
     1531.600000       0.834809
     1531.700000       0.834576
     1531.800000       0.834334
     1531.900000       0.834081
     1532.000000       0.833816
     1532.100000       0.833539
     1532.200000       0.833246
     1532.300000       0.832946
     1532.400000       0.832636
     1532.500000       0.832314
     1532.600000       0.831979
     1532.700000       0.831629
     1532.800000       0.831276
     1532.900000       0.830909
     1533.000000       0.830534
     1533.100000       0.830159
     1533.200000       0.829784
     1533.300000       0.829399
     1533.400000       0.829026
     1533.500000       0.828649
     1533.600000       0.828281
     1533.700000       0.827916
     1533.800000       0.827559
     1533.900000       0.827202
     1534.000000       0.826844
     1534.100000       0.826481
     1534.200000       0.826106
     1534.300000       0.825721
     1534.400000       0.825322
     1534.500000       0.824904
     1534.600000       0.824457
     1534.700000       0.823989
     1534.800000       0.823499
     1534.900000       0.822992
     1535.000000       0.822464
     1535.100000       0.821934
     1535.200000       0.821394
     1535.300000       0.820854
     1535.400000       0.820307
     1535.500000       0.819767
     1535.600000       0.819237
     1535.700000       0.818717
     1535.800000       0.818204
     1535.900000       0.817707
     1536.000000       0.817224
     1536.100000       0.816754
     1536.200000       0.816297
     1536.300000       0.815859
     1536.400000       0.815442
     1536.500000       0.815042
     1536.600000       0.814659
     1536.700000       0.814304
     1536.800000       0.813972
     1536.900000       0.813657
     1537.000000       0.813357
     1537.100000       0.813077
     1537.200000       0.812809
     1537.300000       0.812557
     1537.400000       0.812312
     1537.500000       0.812082
     1537.600000       0.811859
     1537.700000       0.811647
     1537.800000       0.811442
     1537.900000       0.811249
     1538.000000       0.811069
     1538.100000       0.810894
     1538.200000       0.810732
     1538.300000       0.810582
     1538.400000       0.810444
     1538.500000       0.810324
     1538.600000       0.810217
     1538.700000       0.810122
     1538.800000       0.810049
     1538.900000       0.809984
     1539.000000       0.809934
     1539.100000       0.809899
     1539.200000       0.809877
     1539.300000       0.809862
     1539.400000       0.809862
     1539.500000       0.809867
     1539.600000       0.809887
     1539.700000       0.809917
     1539.800000       0.809954
     1539.900000       0.810011
     1540.000000       0.810084
     1540.100000       0.810169
     1540.200000       0.810281
     1540.300000       0.810419
     1540.400000       0.810581
     1540.500000       0.810771
     1540.600000       0.810994
     1540.700000       0.811254
     1540.800000       0.811544
     1540.900000       0.811866
     1541.000000       0.812209
     1541.100000       0.812569
     1541.200000       0.812956
     1541.300000       0.813346
     1541.400000       0.813754
     1541.500000       0.814171
     1541.600000       0.814589
     1541.700000       0.815011
     1541.800000       0.815438
     1541.900000       0.815874
     1542.000000       0.816308
     1542.100000       0.816756
     1542.200000       0.817211
     1542.300000       0.817678
     1542.400000       0.818156
     1542.500000       0.818648
     1542.600000       0.819163
     1542.700000       0.819686
     1542.800000       0.820223
     1542.900000       0.820771
     1543.000000       0.821333
     1543.100000       0.821893
     1543.200000       0.822458
     1543.300000       0.823021
     1543.400000       0.823578
     1543.500000       0.824131
     1543.600000       0.824666
     1543.700000       0.825188
     1543.800000       0.825703
     1543.900000       0.826201
     1544.000000       0.826693
     1544.100000       0.827178
     1544.200000       0.827658
     1544.300000       0.828133
     1544.400000       0.828608
     1544.500000       0.829078
     1544.600000       0.829551
     1544.700000       0.830021
     1544.800000       0.830493
     1544.900000       0.830966
     1545.000000       0.831446
     1545.100000       0.831926
     1545.200000       0.832408
     1545.300000       0.832896
     1545.400000       0.833391
     1545.500000       0.833883
     1545.600000       0.834388
     1545.700000       0.834896
     1545.800000       0.835406
     1545.900000       0.835921
     1546.000000       0.836436
     1546.100000       0.836943
     1546.200000       0.837458
     1546.300000       0.837956
     1546.400000       0.838451
     1546.500000       0.838934
     1546.600000       0.839401
     1546.700000       0.839856
     1546.800000       0.840299
     1546.900000       0.840729
     1547.000000       0.841151
     1547.100000       0.841564
     1547.200000       0.841971
     1547.300000       0.842374
     1547.400000       0.842779
     1547.500000       0.843181
     1547.600000       0.843576
     1547.700000       0.843979
     1547.800000       0.844382
     1547.900000       0.844777
     1548.000000       0.845169
     1548.100000       0.845544
     1548.200000       0.845914
     1548.300000       0.846259
     1548.400000       0.846587
     1548.500000       0.846884
     1548.600000       0.847164
     1548.700000       0.847404
     1548.800000       0.847610
     1548.900000       0.847792
     1549.000000       0.847942
     1549.100000       0.848062
     1549.200000       0.848152
     1549.300000       0.848212
     1549.400000       0.848242
     1549.500000       0.848240
     1549.600000       0.848205
     1549.700000       0.848137
     1549.800000       0.848043
     1549.900000       0.847913
     1550.000000       0.847753
     1550.100000       0.847565
     1550.200000       0.847350
     1550.300000       0.847108
     1550.400000       0.846840
     1550.500000       0.846543
     1550.600000       0.846218
     1550.700000       0.845871
     1550.800000       0.845493
     1550.900000       0.845098
     1551.000000       0.844681
     1551.100000       0.844248
     1551.200000       0.843806
     1551.300000       0.843348
     1551.400000       0.842886
     1551.500000       0.842416
     1551.600000       0.841941
     1551.700000       0.841461
     1551.800000       0.840979
     1551.900000       0.840491
     1552.000000       0.839999
     1552.100000       0.839496
     1552.200000       0.838984
     1552.300000       0.838457
     1552.400000       0.837914
     1552.500000       0.837359
     1552.600000       0.836779
     1552.700000       0.836182
     1552.800000       0.835564
     1552.900000       0.834932
     1553.000000       0.834277
     1553.100000       0.833615
     1553.200000       0.832935
     1553.300000       0.832245
     1553.400000       0.831545
     1553.500000       0.830840
     1553.600000       0.830122
     1553.700000       0.829402
     1553.800000       0.828668
     1553.900000       0.827940
     1554.000000       0.827203
     1554.100000       0.826470
     1554.200000       0.825733
     1554.300000       0.825000
     1554.400000       0.824271
     1554.500000       0.823543
     1554.600000       0.822828
     1554.700000       0.822113
     1554.800000       0.821411
     1554.900000       0.820706
     1555.000000       0.820014
     1555.100000       0.819329
     1555.200000       0.818641
     1555.300000       0.817959
     1555.400000       0.817282
     1555.500000       0.816604
     1555.600000       0.815927
     1555.700000       0.815254
     1555.800000       0.814585
     1555.900000       0.813912
     1556.000000       0.813252
     1556.100000       0.812605
     1556.200000       0.811965
     1556.300000       0.811338
     1556.400000       0.810725
     1556.500000       0.810130
     1556.600000       0.809561
     1556.700000       0.809008
     1556.800000       0.808478
     1556.900000       0.807969
     1557.000000       0.807474
     1557.100000       0.806994
     1557.200000       0.806534
     1557.300000       0.806084
     1557.400000       0.805639
     1557.500000       0.805207
     1557.600000       0.804787
     1557.700000       0.804370
     1557.800000       0.803965
     1557.900000       0.803573
     1558.000000       0.803193
     1558.100000       0.802833
     1558.200000       0.802495
     1558.300000       0.802178
     1558.400000       0.801888
     1558.500000       0.801628
     1558.600000       0.801401
     1558.700000       0.801214
     1558.800000       0.801054
     1558.900000       0.800929
     1559.000000       0.800826
     1559.100000       0.800749
     1559.200000       0.800697
     1559.300000       0.800659
     1559.400000       0.800639
     1559.500000       0.800629
     1559.600000       0.800642
     1559.700000       0.800657
     1559.800000       0.800687
     1559.900000       0.800722
     1560.000000       0.800770
     1560.100000       0.800825
     1560.200000       0.800890
     1560.300000       0.800968
     1560.400000       0.801053
     1560.500000       0.801148
     1560.600000       0.801248
     1560.700000       0.801365
     1560.800000       0.801485
     1560.900000       0.801613
     1561.000000       0.801743
     1561.100000       0.801875
     1561.200000       0.802013
     1561.300000       0.802146
     1561.400000       0.802276
     1561.500000       0.802401
     1561.600000       0.802521
     1561.700000       0.802633
     1561.800000       0.802738
     1561.900000       0.802843
     1562.000000       0.802938
     1562.100000       0.803036
     1562.200000       0.803133
     1562.300000       0.803228
     1562.400000       0.803328
     1562.500000       0.803433
     1562.600000       0.803546
     1562.700000       0.803666
     1562.800000       0.803791
     1562.900000       0.803923
     1563.000000       0.804058
     1563.100000       0.804198
     1563.200000       0.804341
     1563.300000       0.804488
     1563.400000       0.804631
     1563.500000       0.804776
     1563.600000       0.804921
     1563.700000       0.805066
     1563.800000       0.805213
     1563.900000       0.805358
     1564.000000       0.805508
     1564.100000       0.805658
     1564.200000       0.805818
     1564.300000       0.805980
     1564.400000       0.806153
     1564.500000       0.806335
     1564.600000       0.806525
     1564.700000       0.806728
     1564.800000       0.806943
     1564.900000       0.807158
     1565.000000       0.807377
     1565.100000       0.807602
     1565.200000       0.807827
     1565.300000       0.808042
     1565.400000       0.808257
     1565.500000       0.808455
     1565.600000       0.808642
     1565.700000       0.808814
     1565.800000       0.808969
     1565.900000       0.809112
     1566.000000       0.809242
     1566.100000       0.809352
     1566.200000       0.809451
     1566.300000       0.809539
     1566.400000       0.809604
     1566.500000       0.809661
     1566.600000       0.809696
     1566.700000       0.809718
     1566.800000       0.809728
     1566.900000       0.809718
     1567.000000       0.809691
     1567.100000       0.809661
     1567.200000       0.809613
     1567.300000       0.809553
     1567.400000       0.809483
     1567.500000       0.809403
     1567.600000       0.809307
     1567.700000       0.809207
     1567.800000       0.809095
     1567.900000       0.808970
     1568.000000       0.808830
     1568.100000       0.808677
     1568.200000       0.808509
     1568.300000       0.808327
     1568.400000       0.808122
     1568.500000       0.807897
     1568.600000       0.807649
     1568.700000       0.807374
     1568.800000       0.807084
     1568.900000       0.806771
     1569.000000       0.806436
     1569.100000       0.806091
     1569.200000       0.805729
     1569.300000       0.805354
     1569.400000       0.804961
     1569.500000       0.804561
     1569.600000       0.804153
     1569.700000       0.803733
     1569.800000       0.803311
     1569.900000       0.802881
     1570.000000       0.802436
     1570.100000       0.801993
     1570.200000       0.801546
     1570.300000       0.801091
     1570.400000       0.800636
     1570.500000       0.800178
     1570.600000       0.799718
     1570.700000       0.799256
     1570.800000       0.798793
     1570.900000       0.798333
     1571.000000       0.797868
     1571.100000       0.797408
     1571.200000       0.796941
     1571.300000       0.796483
     1571.400000       0.796021
     1571.500000       0.795563
     1571.600000       0.795111
     1571.700000       0.794651
     1571.800000       0.794201
     1571.900000       0.793756
     1572.000000       0.793306
     1572.100000       0.792863
     1572.200000       0.792423
     1572.300000       0.791988
     1572.400000       0.791556
     1572.500000       0.791126
     1572.600000       0.790704
     1572.700000       0.790286
     1572.800000       0.789874
     1572.900000       0.789469
     1573.000000       0.789079
     1573.100000       0.788694
     1573.200000       0.788331
     1573.300000       0.787979
     1573.400000       0.787646
     1573.500000       0.787341
     1573.600000       0.787061
     1573.700000       0.786806
     1573.800000       0.786574
     1573.900000       0.786359
     1574.000000       0.786167
     1574.100000       0.785984
     1574.200000       0.785814
     1574.300000       0.785649
     1574.400000       0.785494
     1574.500000       0.785334
     1574.600000       0.785179
     1574.700000       0.785022
     1574.800000       0.784862
     1574.900000       0.784697
     1575.000000       0.784535
     1575.100000       0.784372
     1575.200000       0.784217
     1575.300000       0.784062
     1575.400000       0.783912
     1575.500000       0.783765
     1575.600000       0.783632
     1575.700000       0.783505
     1575.800000       0.783382
     1575.900000       0.783267
     1576.000000       0.783165
     1576.100000       0.783070
     1576.200000       0.782985
     1576.300000       0.782907
     1576.400000       0.782837
     1576.500000       0.782777
     1576.600000       0.782732
     1576.700000       0.782697
     1576.800000       0.782665
     1576.900000       0.782648
     1577.000000       0.782625
     1577.100000       0.782615
     1577.200000       0.782605
     1577.300000       0.782590
     1577.400000       0.782578
     1577.500000       0.782558
     1577.600000       0.782543
     1577.700000       0.782510
     1577.800000       0.782475
     1577.900000       0.782440
     1578.000000       0.782395
     1578.100000       0.782360
     1578.200000       0.782315
     1578.300000       0.782280
     1578.400000       0.782238
     1578.500000       0.782205
     1578.600000       0.782180
     1578.700000       0.782160
     1578.800000       0.782150
     1578.900000       0.782140
     1579.000000       0.782135
     1579.100000       0.782145
     1579.200000       0.782161
     1579.300000       0.782178
     1579.400000       0.782200
     1579.500000       0.782228
     1579.600000       0.782268
     1579.700000       0.782311
     1579.800000       0.782361
     1579.900000       0.782413
     1580.000000       0.782478
     1580.100000       0.782538
     1580.200000       0.782611
     1580.300000       0.782683
     1580.400000       0.782758
     1580.500000       0.782836
     1580.600000       0.782918
     1580.700000       0.783003
     1580.800000       0.783091
     1580.900000       0.783181
     1581.000000       0.783283
     1581.100000       0.783393
     1581.200000       0.783521
     1581.300000       0.783658
     1581.400000       0.783818
     1581.500000       0.783988
     1581.600000       0.784188
     1581.700000       0.784408
     1581.800000       0.784648
     1581.900000       0.784908
     1582.000000       0.785178
     1582.100000       0.785458
     1582.200000       0.785741
     1582.300000       0.786031
     1582.400000       0.786311
     1582.500000       0.786593
     1582.600000       0.786858
     1582.700000       0.787118
     1582.800000       0.787361
     1582.900000       0.787601
     1583.000000       0.787831
     1583.100000       0.788053
     1583.200000       0.788268
     1583.300000       0.788486
     1583.400000       0.788698
     1583.500000       0.788901
     1583.600000       0.789113
     1583.700000       0.789323
     1583.800000       0.789541
     1583.900000       0.789756
     1584.000000       0.789973
     1584.100000       0.790193
     1584.200000       0.790413
     1584.300000       0.790643
     1584.400000       0.790873
     1584.500000       0.791103
     1584.600000       0.791343
     1584.700000       0.791593
     1584.800000       0.791843
     1584.900000       0.792101
     1585.000000       0.792361
     1585.100000       0.792621
     1585.200000       0.792891
     1585.300000       0.793156
     1585.400000       0.793423
     1585.500000       0.793693
     1585.600000       0.793963
     1585.700000       0.794235
     1585.800000       0.794498
     1585.900000       0.794763
     1586.000000       0.795023
     1586.100000       0.795273
     1586.200000       0.795513
     1586.300000       0.795743
     1586.400000       0.795958
     1586.500000       0.796158
     1586.600000       0.796333
     1586.700000       0.796493
     1586.800000       0.796638
     1586.900000       0.796758
     1587.000000       0.796865
     1587.100000       0.796958
     1587.200000       0.797040
     1587.300000       0.797113
     1587.400000       0.797175
     1587.500000       0.797225
     1587.600000       0.797270
     1587.700000       0.797305
     1587.800000       0.797335
     1587.900000       0.797365
     1588.000000       0.797382
     1588.100000       0.797403
     1588.200000       0.797423
     1588.300000       0.797438
     1588.400000       0.797450
     1588.500000       0.797460
     1588.600000       0.797475
     1588.700000       0.797485
     1588.800000       0.797492
     1588.900000       0.797502
     1589.000000       0.797505
     1589.100000       0.797500
     1589.200000       0.797490
     1589.300000       0.797467
     1589.400000       0.797437
     1589.500000       0.797387
     1589.600000       0.797320
     1589.700000       0.797237
     1589.800000       0.797140
     1589.900000       0.797035
     1590.000000       0.796927
     1590.100000       0.796812
     1590.200000       0.796707
     1590.300000       0.796610
     1590.400000       0.796532
     1590.500000       0.796470
     1590.600000       0.796427
     1590.700000       0.796420
     1590.800000       0.796440
     1590.900000       0.796480
     1591.000000       0.796545
     1591.100000       0.796627
     1591.200000       0.796735
     1591.300000       0.796857
     1591.400000       0.796995
     1591.500000       0.797147
     1591.600000       0.797317
     1591.700000       0.797505
     1591.800000       0.797705
     1591.900000       0.797920
     1592.000000       0.798155
     1592.100000       0.798402
     1592.200000       0.798670
     1592.300000       0.798955
     1592.400000       0.799262
     1592.500000       0.799594
     1592.600000       0.799944
     1592.700000       0.800327
     1592.800000       0.800727
     1592.900000       0.801154
     1593.000000       0.801605
     1593.100000       0.802072
     1593.200000       0.802562
     1593.300000       0.803069
     1593.400000       0.803602
     1593.500000       0.804149
     1593.600000       0.804720
     1593.700000       0.805315
     1593.800000       0.805922
     1593.900000       0.806539
     1594.000000       0.807169
     1594.100000       0.807807
     1594.200000       0.808452
     1594.300000       0.809090
     1594.400000       0.809727
     1594.500000       0.810365
     1594.600000       0.810985
     1594.700000       0.811600
     1594.800000       0.812190
     1594.900000       0.812770
     1595.000000       0.813325
     1595.100000       0.813857
     1595.200000       0.814357
     1595.300000       0.814822
     1595.400000       0.815255
     1595.500000       0.815642
     1595.600000       0.815980
     1595.700000       0.816272
     1595.800000       0.816507
     1595.900000       0.816702
     1596.000000       0.816847
     1596.100000       0.816958
     1596.200000       0.817022
     1596.300000       0.817048
     1596.400000       0.817040
     1596.500000       0.816993
     1596.600000       0.816908
     1596.700000       0.816780
     1596.800000       0.816623
     1596.900000       0.816425
     1597.000000       0.816190
     1597.100000       0.815920
     1597.200000       0.815615
     1597.300000       0.815268
     1597.400000       0.814888
     1597.500000       0.814461
     1597.600000       0.813993
     1597.700000       0.813478
     1597.800000       0.812921
     1597.900000       0.812328
     1598.000000       0.811693
     1598.100000       0.811028
     1598.200000       0.810328
     1598.300000       0.809598
     1598.400000       0.808833
     1598.500000       0.808041
     1598.600000       0.807221
     1598.700000       0.806371
     1598.800000       0.805493
     1598.900000       0.804593
     1599.000000       0.803674
     1599.100000       0.802741
     1599.200000       0.801791
     1599.300000       0.800829
     1599.400000       0.799859
     1599.500000       0.798881
     1599.600000       0.797899
     1599.700000       0.796914
     1599.800000       0.795926
     1599.900000       0.794934
     1600.000000       0.793932
     1600.100000       0.792929
     1600.200000       0.791917
     1600.300000       0.790899
     1600.400000       0.789872
     1600.500000       0.788832
     1600.600000       0.787784
     1600.700000       0.786722
     1600.800000       0.785652
     1600.900000       0.784572
     1601.000000       0.783492
     1601.100000       0.782402
     1601.200000       0.781322
     1601.300000       0.780237
     1601.400000       0.779165
     1601.500000       0.778097
     1601.600000       0.777040
     1601.700000       0.775995
     1601.800000       0.774965
     1601.900000       0.773948
     1602.000000       0.772953
     1602.100000       0.771975
     1602.200000       0.771020
     1602.300000       0.770083
     1602.400000       0.769175
     1602.500000       0.768293
     1602.600000       0.767445
     1602.700000       0.766623
     1602.800000       0.765836
     1602.900000       0.765078
     1603.000000       0.764353
     1603.100000       0.763658
     1603.200000       0.762993
     1603.300000       0.762358
     1603.400000       0.761756
     1603.500000       0.761183
     1603.600000       0.760641
     1603.700000       0.760136
     1603.800000       0.759671
     1603.900000       0.759228
     1604.000000       0.758824
     1604.100000       0.758451
     1604.200000       0.758109
     1604.300000       0.757799
     1604.400000       0.757526
     1604.500000       0.757286
     1604.600000       0.757084
     1604.700000       0.756919
     1604.800000       0.756789
     1604.900000       0.756691
     1605.000000       0.756622
     1605.100000       0.756574
     1605.200000       0.756549
     1605.300000       0.756549
     1605.400000       0.756564
     1605.500000       0.756597
     1605.600000       0.756634
     1605.700000       0.756694
     1605.800000       0.756762
     1605.900000       0.756830
     1606.000000       0.756907
     1606.100000       0.756982
     1606.200000       0.757057
     1606.300000       0.757132
     1606.400000       0.757197
     1606.500000       0.757255
     1606.600000       0.757297
     1606.700000       0.757330
     1606.800000       0.757340
     1606.900000       0.757337
     1607.000000       0.757312
     1607.100000       0.757277
     1607.200000       0.757207
     1607.300000       0.757122
     1607.400000       0.757012
     1607.500000       0.756867
     1607.600000       0.756695
     1607.700000       0.756492
     1607.800000       0.756252
     1607.900000       0.755985
     1608.000000       0.755685
     1608.100000       0.755365
     1608.200000       0.755017
     1608.300000       0.754640
     1608.400000       0.754235
     1608.500000       0.753812
     1608.600000       0.753362
     1608.700000       0.752885
     1608.800000       0.752385
     1608.900000       0.751872
     1609.000000       0.751332
     1609.100000       0.750787
     1609.200000       0.750225
     1609.300000       0.749655
     1609.400000       0.749080
     1609.500000       0.748500
     1609.600000       0.747917
     1609.700000       0.747335
     1609.800000       0.746750
     1609.900000       0.746160
     1610.000000       0.745575
     1610.100000       0.744982
     1610.200000       0.744390
     1610.300000       0.743795
     1610.400000       0.743190
     1610.500000       0.742587
     1610.600000       0.741977
     1610.700000       0.741362
     1610.800000       0.740740
     1610.900000       0.740122
     1611.000000       0.739502
     1611.100000       0.738885
     1611.200000       0.738270
     1611.300000       0.737660
     1611.400000       0.737065
     1611.500000       0.736474
     1611.600000       0.735904
     1611.700000       0.735344
     1611.800000       0.734802
     1611.900000       0.734277
     1612.000000       0.733762
     1612.100000       0.733264
     1612.200000       0.732784
     1612.300000       0.732319
     1612.400000       0.731872
     1612.500000       0.731439
     1612.600000       0.731029
     1612.700000       0.730634
     1612.800000       0.730259
     1612.900000       0.729897
     1613.000000       0.729544
     1613.100000       0.729202
     1613.200000       0.728867
     1613.300000       0.728534
     1613.400000       0.728207
     1613.500000       0.727877
     1613.600000       0.727549
     1613.700000       0.727214
     1613.800000       0.726872
     1613.900000       0.726534
     1614.000000       0.726197
     1614.100000       0.725849
     1614.200000       0.725507
     1614.300000       0.725164
     1614.400000       0.724819
     1614.500000       0.724482
     1614.600000       0.724142
     1614.700000       0.723812
     1614.800000       0.723474
     1614.900000       0.723144
     1615.000000       0.722814
     1615.100000       0.722484
     1615.200000       0.722152
     1615.300000       0.721812
     1615.400000       0.721479
     1615.500000       0.721136
     1615.600000       0.720789
     1615.700000       0.720437
     1615.800000       0.720082
     1615.900000       0.719721
     1616.000000       0.719359
     1616.100000       0.718999
     1616.200000       0.718636
     1616.300000       0.718281
     1616.400000       0.717929
     1616.500000       0.717586
     1616.600000       0.717244
     1616.700000       0.716914
     1616.800000       0.716589
     1616.900000       0.716269
     1617.000000       0.715946
     1617.100000       0.715631
     1617.200000       0.715311
     1617.300000       0.714981
     1617.400000       0.714649
     1617.500000       0.714306
     1617.600000       0.713951
     1617.700000       0.713581
     1617.800000       0.713206
     1617.900000       0.712819
     1618.000000       0.712423
     1618.100000       0.712031
     1618.200000       0.711638
     1618.300000       0.711246
     1618.400000       0.710856
     1618.500000       0.710481
     1618.600000       0.710111
     1618.700000       0.709758
     1618.800000       0.709416
     1618.900000       0.709083
     1619.000000       0.708753
     1619.100000       0.708433
     1619.200000       0.708116
     1619.300000       0.707798
     1619.400000       0.707476
     1619.500000       0.707153
     1619.600000       0.706823
     1619.700000       0.706483
     1619.800000       0.706136
     1619.900000       0.705785
     1620.000000       0.705430
     1620.100000       0.705068
     1620.200000       0.704705
     1620.300000       0.704338
     1620.400000       0.703968
     1620.500000       0.703593
     1620.600000       0.703218
     1620.700000       0.702843
     1620.800000       0.702470
     1620.900000       0.702095
     1621.000000       0.701723
     1621.100000       0.701358
     1621.200000       0.701000
     1621.300000       0.700650
     1621.400000       0.700305
     1621.500000       0.699973
     1621.600000       0.699655
     1621.700000       0.699343
     1621.800000       0.699048
     1621.900000       0.698763
     1622.000000       0.698480
     1622.100000       0.698207
     1622.200000       0.697925
     1622.300000       0.697650
     1622.400000       0.697368
     1622.500000       0.697085
     1622.600000       0.696787
     1622.700000       0.696480
     1622.800000       0.696167
     1622.900000       0.695845
     1623.000000       0.695520
     1623.100000       0.695187
     1623.200000       0.694855
     1623.300000       0.694512
     1623.400000       0.694180
     1623.500000       0.693845
     1623.600000       0.693505
     1623.700000       0.693175
     1623.800000       0.692850
     1623.900000       0.692520
     1624.000000       0.692200
     1624.100000       0.691875
     1624.200000       0.691562
     1624.300000       0.691242
     1624.400000       0.690930
     1624.500000       0.690617
     1624.600000       0.690307
     1624.700000       0.689995
     1624.800000       0.689690
     1624.900000       0.689380
     1625.000000       0.689072
     1625.100000       0.688767
     1625.200000       0.688457
     1625.300000       0.688147
     1625.400000       0.687835
     1625.500000       0.687522
     1625.600000       0.687202
     1625.700000       0.686882
     1625.800000       0.686560
     1625.900000       0.686230
     1626.000000       0.685897
     1626.100000       0.685557
     1626.200000       0.685215
     1626.300000       0.684862
     1626.400000       0.684505
     1626.500000       0.684142
     1626.600000       0.683770
     1626.700000       0.683390
     1626.800000       0.683000
     1626.900000       0.682607
     1627.000000       0.682210
     1627.100000       0.681810
     1627.200000       0.681405
     1627.300000       0.681002
     1627.400000       0.680602
     1627.500000       0.680200
     1627.600000       0.679800
     1627.700000       0.679405
     1627.800000       0.679015
     1627.900000       0.678635
     1628.000000       0.678255
     1628.100000       0.677885
     1628.200000       0.677522
     1628.300000       0.677170
     1628.400000       0.676835
     1628.500000       0.676505
     1628.600000       0.676185
     1628.700000       0.675882
     1628.800000       0.675592
     1628.900000       0.675307
     1629.000000       0.675032
     1629.100000       0.674752
     1629.200000       0.674470
     1629.300000       0.674187
     1629.400000       0.673892
     1629.500000       0.673585
     1629.600000       0.673262
     1629.700000       0.672927
     1629.800000       0.672572
     1629.900000       0.672205
     1630.000000       0.671830
     1630.100000       0.671447
     1630.200000       0.671055
     1630.300000       0.670662
     1630.400000       0.670267
     1630.500000       0.669877
     1630.600000       0.669489
     1630.700000       0.669107
     1630.800000       0.668735
     1630.900000       0.668359
     1631.000000       0.667992
     1631.100000       0.667627
     1631.200000       0.667262
     1631.300000       0.666899
     1631.400000       0.666535
     1631.500000       0.666172
     1631.600000       0.665802
     1631.700000       0.665434
     1631.800000       0.665064
     1631.900000       0.664689
     1632.000000       0.664322
     1632.100000       0.663952
     1632.200000       0.663579
     1632.300000       0.663214
     1632.400000       0.662849
     1632.500000       0.662487
     1632.600000       0.662132
     1632.700000       0.661782
     1632.800000       0.661437
     1632.900000       0.661094
     1633.000000       0.660762
     1633.100000       0.660434
     1633.200000       0.660117
     1633.300000       0.659804
     1633.400000       0.659497
     1633.500000       0.659207
     1633.600000       0.658917
     1633.700000       0.658647
     1633.800000       0.658382
     1633.900000       0.658129
     1634.000000       0.657884
     1634.100000       0.657649
     1634.200000       0.657424
     1634.300000       0.657204
     1634.400000       0.656999
     1634.500000       0.656804
     1634.600000       0.656619
     1634.700000       0.656446
     1634.800000       0.656274
     1634.900000       0.656119
     1635.000000       0.655966
     1635.100000       0.655824
     1635.200000       0.655684
     1635.300000       0.655554
     1635.400000       0.655419
     1635.500000       0.655294
     1635.600000       0.655171
     1635.700000       0.655049
     1635.800000       0.654934
     1635.900000       0.654819
     1636.000000       0.654716
     1636.100000       0.654621
     1636.200000       0.654536
     1636.300000       0.654464
     1636.400000       0.654406
     1636.500000       0.654371
     1636.600000       0.654356
     1636.700000       0.654361
     1636.800000       0.654386
     1636.900000       0.654431
     1637.000000       0.654494
     1637.100000       0.654571
     1637.200000       0.654659
     1637.300000       0.654764
     1637.400000       0.654879
     1637.500000       0.655003
     1637.600000       0.655138
     1637.700000       0.655276
     1637.800000       0.655428
     1637.900000       0.655589
     1638.000000       0.655761
     1638.100000       0.655941
     1638.200000       0.656136
     1638.300000       0.656336
     1638.400000       0.656553
     1638.500000       0.656786
     1638.600000       0.657033
     1638.700000       0.657293
     1638.800000       0.657571
     1638.900000       0.657858
     1639.000000       0.658151
     1639.100000       0.658458
     1639.200000       0.658766
     1639.300000       0.659078
     1639.400000       0.659386
     1639.500000       0.659698
     1639.600000       0.659998
     1639.700000       0.660301
     1639.800000       0.660593
     1639.900000       0.660886
     1640.000000       0.661171
     1640.100000       0.661463
     1640.200000       0.661753
     1640.300000       0.662043
     1640.400000       0.662336
     1640.500000       0.662636
     1640.600000       0.662938
     1640.700000       0.663251
     1640.800000       0.663571
     1640.900000       0.663891
     1641.000000       0.664211
     1641.100000       0.664536
     1641.200000       0.664866
     1641.300000       0.665188
     1641.400000       0.665516
     1641.500000       0.665836
     1641.600000       0.666150
     1641.700000       0.666461
     1641.800000       0.666768
     1641.900000       0.667070
     1642.000000       0.667368
     1642.100000       0.667658
     1642.200000       0.667943
     1642.300000       0.668228
     1642.400000       0.668508
     1642.500000       0.668783
     1642.600000       0.669050
     1642.700000       0.669315
     1642.800000       0.669575
     1642.900000       0.669835
     1643.000000       0.670093
     1643.100000       0.670353
     1643.200000       0.670613
     1643.300000       0.670873
     1643.400000       0.671140
     1643.500000       0.671410
     1643.600000       0.671688
     1643.700000       0.671968
     1643.800000       0.672258
     1643.900000       0.672545
     1644.000000       0.672833
     1644.100000       0.673113
     1644.200000       0.673383
     1644.300000       0.673643
     1644.400000       0.673890
     1644.500000       0.674120
     1644.600000       0.674328
     1644.700000       0.674508
     1644.800000       0.674667
     1644.900000       0.674815
     1645.000000       0.674943
     1645.100000       0.675057
     1645.200000       0.675162
     1645.300000       0.675265
     1645.400000       0.675365
     1645.500000       0.675465
     1645.600000       0.675565
     1645.700000       0.675672
     1645.800000       0.675782
     1645.900000       0.675902
     1646.000000       0.676025
     1646.100000       0.676155
     1646.200000       0.676295
     1646.300000       0.676435
     1646.400000       0.676585
     1646.500000       0.676745
     1646.600000       0.676915
     1646.700000       0.677090
     1646.800000       0.677272
     1646.900000       0.677467
     1647.000000       0.677665
     1647.100000       0.677862
     1647.200000       0.678065
     1647.300000       0.678272
     1647.400000       0.678477
     1647.500000       0.678685
     1647.600000       0.678890
     1647.700000       0.679095
     1647.800000       0.679295
     1647.900000       0.679502
     1648.000000       0.679717
     1648.100000       0.679942
     1648.200000       0.680187
     1648.300000       0.680447
     1648.400000       0.680729
     1648.500000       0.681042
     1648.600000       0.681382
     1648.700000       0.681755
     1648.800000       0.682162
     1648.900000       0.682594
     1649.000000       0.683055
     1649.100000       0.683542
     1649.200000       0.684042
     1649.300000       0.684567
     1649.400000       0.685099
     1649.500000       0.685657
     1649.600000       0.686224
     1649.700000       0.686799
     1649.800000       0.687387
     1649.900000       0.687984
     1650.000000       0.688594
     1650.100000       0.689212
     1650.200000       0.689844
     1650.300000       0.690482
     1650.400000       0.691137
     1650.500000       0.691802
     1650.600000       0.692477
     1650.700000       0.693164
     1650.800000       0.693869
     1650.900000       0.694594
     1651.000000       0.695339
     1651.100000       0.696104
     1651.200000       0.696899
     1651.300000       0.697724
     1651.400000       0.698579
     1651.500000       0.699476
     1651.600000       0.700406
     1651.700000       0.701389
     1651.800000       0.702404
     1651.900000       0.703459
     1652.000000       0.704536
     1652.100000       0.705641
     1652.200000       0.706766
     1652.300000       0.707904
     1652.400000       0.709046
     1652.500000       0.710198
     1652.600000       0.711346
     1652.700000       0.712494
     1652.800000       0.713641
     1652.900000       0.714791
     1653.000000       0.715938
     1653.100000       0.717088
     1653.200000       0.718248
     1653.300000       0.719408
     1653.400000       0.720586
     1653.500000       0.721768
     1653.600000       0.722961
     1653.700000       0.724168
     1653.800000       0.725396
     1653.900000       0.726630
     1654.000000       0.727888
     1654.100000       0.729158
     1654.200000       0.730443
     1654.300000       0.731750
     1654.400000       0.733078
     1654.500000       0.734418
     1654.600000       0.735788
     1654.700000       0.737185
     1654.800000       0.738593
     1654.900000       0.740018
     1655.000000       0.741458
     1655.100000       0.742903
     1655.200000       0.744350
     1655.300000       0.745795
     1655.400000       0.747235
     1655.500000       0.748670
     1655.600000       0.750085
     1655.700000       0.751490
     1655.800000       0.752882
     1655.900000       0.754267
     1656.000000       0.755647
     1656.100000       0.757035
     1656.200000       0.758427
     1656.300000       0.759830
     1656.400000       0.761252
     1656.500000       0.762694
     1656.600000       0.764164
     1656.700000       0.765664
     1656.800000       0.767194
     1656.900000       0.768744
     1657.000000       0.770314
     1657.100000       0.771897
     1657.200000       0.773497
     1657.300000       0.775102
     1657.400000       0.776707
     1657.500000       0.778316
     1657.600000       0.779919
     1657.700000       0.781519
     1657.800000       0.783114
     1657.900000       0.784701
     1658.000000       0.786284
     1658.100000       0.787864
     1658.200000       0.789439
     1658.300000       0.791011
     1658.400000       0.792584
     1658.500000       0.794151
     1658.600000       0.795721
     1658.700000       0.797284
     1658.800000       0.798846
     1658.900000       0.800408
     1659.000000       0.801971
     1659.100000       0.803528
     1659.200000       0.805083
     1659.300000       0.806636
     1659.400000       0.808186
     1659.500000       0.809728
     1659.600000       0.811271
     1659.700000       0.812808
     1659.800000       0.814341
     1659.900000       0.815853
     1660.000000       0.817353
     1660.100000       0.818833
     1660.200000       0.820291
     1660.300000       0.821713
     1660.400000       0.823108
     1660.500000       0.824458
     1660.600000       0.825773
     1660.700000       0.827030
     1660.800000       0.828253
     1660.900000       0.829433
     1661.000000       0.830580
     1661.100000       0.831698
     1661.200000       0.832795
     1661.300000       0.833868
     1661.400000       0.834928
     1661.500000       0.835975
     1661.600000       0.837015
     1661.700000       0.838050
     1661.800000       0.839078
     1661.900000       0.840093
     1662.000000       0.841103
     1662.100000       0.842102
     1662.200000       0.843085
     1662.300000       0.844055
     1662.400000       0.845005
     1662.500000       0.845937
     1662.600000       0.846847
     1662.700000       0.847730
     1662.800000       0.848590
     1662.900000       0.849430
     1663.000000       0.850247
     1663.100000       0.851040
     1663.200000       0.851817
     1663.300000       0.852570
     1663.400000       0.853305
     1663.500000       0.854015
     1663.600000       0.854705
     1663.700000       0.855375
     1663.800000       0.856022
     1663.900000       0.856660
     1664.000000       0.857279
     1664.100000       0.857879
     1664.200000       0.858477
     1664.300000       0.859059
     1664.400000       0.859637
     1664.500000       0.860204
     1664.600000       0.860767
     1664.700000       0.861327
     1664.800000       0.861887
     1664.900000       0.862444
     1665.000000       0.862997
     1665.100000       0.863549
     1665.200000       0.864104
     1665.300000       0.864657
     1665.400000       0.865216
     1665.500000       0.865771
     1665.600000       0.866331
     1665.700000       0.866896
     1665.800000       0.867461
     1665.900000       0.868031
     1666.000000       0.868596
     1666.100000       0.869161
     1666.200000       0.869718
     1666.300000       0.870274
     1666.400000       0.870818
     1666.500000       0.871353
     1666.600000       0.871878
     1666.700000       0.872386
     1666.800000       0.872883
     1666.900000       0.873368
     1667.000000       0.873836
     1667.100000       0.874286
     1667.200000       0.874723
     1667.300000       0.875135
     1667.400000       0.875533
     1667.500000       0.875903
     1667.600000       0.876253
     1667.700000       0.876583
     1667.800000       0.876883
     1667.900000       0.877165
     1668.000000       0.877437
     1668.100000       0.877692
     1668.200000       0.877945
     1668.300000       0.878190
     1668.400000       0.878427
     1668.500000       0.878662
     1668.600000       0.878905
     1668.700000       0.879154
     1668.800000       0.879394
     1668.900000       0.879642
     1669.000000       0.879889
     1669.100000       0.880132
     1669.200000       0.880369
     1669.300000       0.880594
     1669.400000       0.880814
     1669.500000       0.881024
     1669.600000       0.881214
     1669.700000       0.881386
     1669.800000       0.881546
     1669.900000       0.881689
     1670.000000       0.881814
     1670.100000       0.881924
     1670.200000       0.882016
     1670.300000       0.882089
     1670.400000       0.882141
     1670.500000       0.882178
     1670.600000       0.882191
     1670.700000       0.882181
     1670.800000       0.882151
     1670.900000       0.882111
     1671.000000       0.882053
     1671.100000       0.881991
     1671.200000       0.881920
     1671.300000       0.881840
     1671.400000       0.881768
     1671.500000       0.881695
     1671.600000       0.881625
     1671.700000       0.881560
     1671.800000       0.881503
     1671.900000       0.881458
     1672.000000       0.881422
     1672.100000       0.881397
     1672.200000       0.881385
     1672.300000       0.881390
     1672.400000       0.881407
     1672.500000       0.881442
     1672.600000       0.881497
     1672.700000       0.881572
     1672.800000       0.881660
     1672.900000       0.881762
     1673.000000       0.881872
     1673.100000       0.881980
     1673.200000       0.882085
     1673.300000       0.882177
     1673.400000       0.882259
     1673.500000       0.882317
     1673.600000       0.882357
     1673.700000       0.882362
     1673.800000       0.882347
     1673.900000       0.882312
     1674.000000       0.882257
     1674.100000       0.882194
     1674.200000       0.882127
     1674.300000       0.882059
     1674.400000       0.881989
     1674.500000       0.881932
     1674.600000       0.881879
     1674.700000       0.881844
     1674.800000       0.881822
     1674.900000       0.881807
     1675.000000       0.881799
     1675.100000       0.881792
     1675.200000       0.881784
     1675.300000       0.881767
     1675.400000       0.881742
     1675.500000       0.881709
     1675.600000       0.881659
     1675.700000       0.881594
     1675.800000       0.881509
     1675.900000       0.881409
     1676.000000       0.881289
     1676.100000       0.881157
     1676.200000       0.881007
     1676.300000       0.880847
     1676.400000       0.880672
     1676.500000       0.880484
     1676.600000       0.880282
     1676.700000       0.880064
     1676.800000       0.879834
     1676.900000       0.879592
     1677.000000       0.879334
     1677.100000       0.879067
     1677.200000       0.878784
     1677.300000       0.878489
     1677.400000       0.878179
     1677.500000       0.877859
     1677.600000       0.877522
     1677.700000       0.877172
     1677.800000       0.876804
     1677.900000       0.876422
     1678.000000       0.876037
     1678.100000       0.875637
     1678.200000       0.875229
     1678.300000       0.874817
     1678.400000       0.874392
     1678.500000       0.873959
     1678.600000       0.873527
     1678.700000       0.873092
     1678.800000       0.872649
     1678.900000       0.872197
     1679.000000       0.871742
     1679.100000       0.871279
     1679.200000       0.870802
     1679.300000       0.870319
     1679.400000       0.869822
     1679.500000       0.869314
     1679.600000       0.868787
     1679.700000       0.868252
     1679.800000       0.867699
     1679.900000       0.867139
     1680.000000       0.866572
     1680.100000       0.866002
     1680.200000       0.865429
     1680.300000       0.864867
     1680.400000       0.864307
     1680.500000       0.863757
     1680.600000       0.863219
     1680.700000       0.862699
     1680.800000       0.862189
     1680.900000       0.861699
     1681.000000       0.861222
     1681.100000       0.860764
     1681.200000       0.860324
     1681.300000       0.859897
     1681.400000       0.859492
     1681.500000       0.859104
     1681.600000       0.858737
     1681.700000       0.858389
     1681.800000       0.858057
     1681.900000       0.857747
     1682.000000       0.857449
     1682.100000       0.857164
     1682.200000       0.856894
     1682.300000       0.856632
     1682.400000       0.856384
     1682.500000       0.856139
     1682.600000       0.855902
     1682.700000       0.855672
     1682.800000       0.855447
     1682.900000       0.855229
     1683.000000       0.855014
     1683.100000       0.854802
     1683.200000       0.854597
     1683.300000       0.854394
     1683.400000       0.854197
     1683.500000       0.853994
     1683.600000       0.853804
     1683.700000       0.853614
     1683.800000       0.853432
     1683.900000       0.853257
     1684.000000       0.853087
     1684.100000       0.852942
     1684.200000       0.852807
     1684.300000       0.852692
     1684.400000       0.852599
     1684.500000       0.852534
     1684.600000       0.852499
     1684.700000       0.852504
     1684.800000       0.852539
     1684.900000       0.852594
     1685.000000       0.852679
     1685.100000       0.852784
     1685.200000       0.852909
     1685.300000       0.853054
     1685.400000       0.853214
     1685.500000       0.853382
     1685.600000       0.853564
     1685.700000       0.853757
     1685.800000       0.853951
     1685.900000       0.854161
     1686.000000       0.854386
     1686.100000       0.854611
     1686.200000       0.854859
     1686.300000       0.855111
     1686.400000       0.855381
     1686.500000       0.855666
     1686.600000       0.855966
     1686.700000       0.856281
     1686.800000       0.856616
     1686.900000       0.856966
     1687.000000       0.857336
     1687.100000       0.857716
     1687.200000       0.858114
     1687.300000       0.858534
     1687.400000       0.858961
     1687.500000       0.859416
     1687.600000       0.859881
     1687.700000       0.860369
     1687.800000       0.860866
     1687.900000       0.861379
     1688.000000       0.861904
     1688.100000       0.862431
     1688.200000       0.862964
     1688.300000       0.863491
     1688.400000       0.864021
     1688.500000       0.864541
     1688.600000       0.865051
     1688.700000       0.865551
     1688.800000       0.866049
     1688.900000       0.866531
     1689.000000       0.867016
     1689.100000       0.867499
     1689.200000       0.867986
     1689.300000       0.868481
     1689.400000       0.868986
     1689.500000       0.869499
     1689.600000       0.870034
     1689.700000       0.870581
     1689.800000       0.871146
     1689.900000       0.871721
     1690.000000       0.872296
     1690.100000       0.872874
     1690.200000       0.873449
     1690.300000       0.874009
     1690.400000       0.874559
     1690.500000       0.875089
     1690.600000       0.875594
     1690.700000       0.876069
     1690.800000       0.876519
     1690.900000       0.876939
     1691.000000       0.877341
     1691.100000       0.877714
     1691.200000       0.878064
     1691.300000       0.878394
     1691.400000       0.878699
     1691.500000       0.878976
     1691.600000       0.879236
     1691.700000       0.879468
     1691.800000       0.879683
     1691.900000       0.879879
     1692.000000       0.880058
     1692.100000       0.880226
     1692.200000       0.880386
     1692.300000       0.880541
     1692.400000       0.880686
     1692.500000       0.880828
     1692.600000       0.880978
     1692.700000       0.881121
     1692.800000       0.881266
     1692.900000       0.881408
     1693.000000       0.881551
     1693.100000       0.881693
     1693.200000       0.881826
     1693.300000       0.881958
     1693.400000       0.882081
     1693.500000       0.882191
     1693.600000       0.882301
     1693.700000       0.882393
     1693.800000       0.882476
     1693.900000       0.882545
     1694.000000       0.882608
     1694.100000       0.882651
     1694.200000       0.882693
     1694.300000       0.882728
     1694.400000       0.882753
     1694.500000       0.882763
     1694.600000       0.882763
     1694.700000       0.882755
     1694.800000       0.882735
     1694.900000       0.882715
     1695.000000       0.882685
     1695.100000       0.882663
     1695.200000       0.882630
     1695.300000       0.882600
     1695.400000       0.882575
     1695.500000       0.882550
     1695.600000       0.882533
     1695.700000       0.882528
     1695.800000       0.882525
     1695.900000       0.882527
     1696.000000       0.882542
     1696.100000       0.882555
     1696.200000       0.882572
     1696.300000       0.882600
     1696.400000       0.882627
     1696.500000       0.882655
     1696.600000       0.882685
     1696.700000       0.882720
     1696.800000       0.882757
     1696.900000       0.882797
     1697.000000       0.882842
     1697.100000       0.882889
     1697.200000       0.882947
     1697.300000       0.883017
     1697.400000       0.883092
     1697.500000       0.883187
     1697.600000       0.883284
     1697.700000       0.883402
     1697.800000       0.883532
     1697.900000       0.883677
     1698.000000       0.883844
     1698.100000       0.884024
     1698.200000       0.884227
     1698.300000       0.884444
     1698.400000       0.884684
     1698.500000       0.884946
     1698.600000       0.885236
     1698.700000       0.885554
     1698.800000       0.885891
     1698.900000       0.886251
     1699.000000       0.886639
     1699.100000       0.887046
     1699.200000       0.887469
     1699.300000       0.887914
     1699.400000       0.888381
     1699.500000       0.888861
     1699.600000       0.889364
     1699.700000       0.889881
     1699.800000       0.890419
     1699.900000       0.890961
     1700.000000       0.891521
     1700.100000       0.892078
     1700.200000       0.892648
     1700.300000       0.893216
     1700.400000       0.893779
     1700.500000       0.894343
     1700.600000       0.894896
     1700.700000       0.895443
     1700.800000       0.895983
     1700.900000       0.896518
     1701.000000       0.897048
     1701.100000       0.897578
     1701.200000       0.898111
     1701.300000       0.898638
     1701.400000       0.899173
     1701.500000       0.899711
     1701.600000       0.900253
     1701.700000       0.900808
     1701.800000       0.901371
     1701.900000       0.901946
     1702.000000       0.902521
     1702.100000       0.903106
     1702.200000       0.903696
     1702.300000       0.904298
     1702.400000       0.904911
     1702.500000       0.905526
     1702.600000       0.906151
     1702.700000       0.906786
     1702.800000       0.907431
     1702.900000       0.908086
     1703.000000       0.908743
     1703.100000       0.909418
     1703.200000       0.910096
     1703.300000       0.910783
     1703.400000       0.911481
     1703.500000       0.912193
     1703.600000       0.912913
     1703.700000       0.913646
     1703.800000       0.914383
     1703.900000       0.915136
     1704.000000       0.915888
     1704.100000       0.916641
     1704.200000       0.917398
     1704.300000       0.918151
     1704.400000       0.918903
     1704.500000       0.919646
     1704.600000       0.920389
     1704.700000       0.921114
     1704.800000       0.921836
     1704.900000       0.922543
     1705.000000       0.923253
     1705.100000       0.923959
     1705.200000       0.924661
     1705.300000       0.925371
     1705.400000       0.926076
     1705.500000       0.926786
     1705.600000       0.927501
     1705.700000       0.928231
     1705.800000       0.928956
     1705.900000       0.929686
     1706.000000       0.930409
     1706.100000       0.931129
     1706.200000       0.931839
     1706.300000       0.932524
     1706.400000       0.933196
     1706.500000       0.933846
     1706.600000       0.934466
     1706.700000       0.935054
     1706.800000       0.935614
     1706.900000       0.936141
     1707.000000       0.936646
     1707.100000       0.937126
     1707.200000       0.937576
     1707.300000       0.938009
     1707.400000       0.938414
     1707.500000       0.938794
     1707.600000       0.939156
     1707.700000       0.939494
     1707.800000       0.939812
     1707.900000       0.940102
     1708.000000       0.940381
     1708.100000       0.940642
     1708.200000       0.940882
     1708.300000       0.941109
     1708.400000       0.941317
     1708.500000       0.941509
     1708.600000       0.941682
     1708.700000       0.941842
     1708.800000       0.941982
     1708.900000       0.942104
     1709.000000       0.942217
     1709.100000       0.942304
     1709.200000       0.942377
     1709.300000       0.942427
     1709.400000       0.942452
     1709.500000       0.942459
     1709.600000       0.942442
     1709.700000       0.942394
     1709.800000       0.942322
     1709.900000       0.942227
     1710.000000       0.942114
     1710.100000       0.941977
     1710.200000       0.941822
     1710.300000       0.941644
     1710.400000       0.941452
     1710.500000       0.941239
     1710.600000       0.941014
     1710.700000       0.940767
     1710.800000       0.940502
     1710.900000       0.940227
     1711.000000       0.939939
     1711.100000       0.939642
     1711.200000       0.939329
     1711.300000       0.939009
     1711.400000       0.938682
     1711.500000       0.938342
     1711.600000       0.938004
     1711.700000       0.937654
     1711.800000       0.937302
     1711.900000       0.936934
     1712.000000       0.936552
     1712.100000       0.936157
     1712.200000       0.935742
     1712.300000       0.935307
     1712.400000       0.934847
     1712.500000       0.934359
     1712.600000       0.933842
     1712.700000       0.933289
     1712.800000       0.932707
     1712.900000       0.932099
     1713.000000       0.931477
     1713.100000       0.930829
     1713.200000       0.930182
     1713.300000       0.929524
     1713.400000       0.928864
     1713.500000       0.928212
     1713.600000       0.927562
     1713.700000       0.926924
     1713.800000       0.926294
     1713.900000       0.925677
     1714.000000       0.925067
     1714.100000       0.924459
     1714.200000       0.923857
     1714.300000       0.923257
     1714.400000       0.922659
     1714.500000       0.922067
     1714.600000       0.921465
     1714.700000       0.920870
     1714.800000       0.920267
     1714.900000       0.919674
     1715.000000       0.919080
     1715.100000       0.918492
     1715.200000       0.917907
     1715.300000       0.917340
     1715.400000       0.916775
     1715.500000       0.916220
     1715.600000       0.915682
     1715.700000       0.915160
     1715.800000       0.914655
     1715.900000       0.914155
     1716.000000       0.913670
     1716.100000       0.913192
     1716.200000       0.912725
     1716.300000       0.912267
     1716.400000       0.911810
     1716.500000       0.911362
     1716.600000       0.910915
     1716.700000       0.910477
     1716.800000       0.910035
     1716.900000       0.909602
     1717.000000       0.909175
     1717.100000       0.908760
     1717.200000       0.908347
     1717.300000       0.907945
     1717.400000       0.907555
     1717.500000       0.907182
     1717.600000       0.906820
     1717.700000       0.906477
     1717.800000       0.906147
     1717.900000       0.905827
     1718.000000       0.905517
     1718.100000       0.905215
     1718.200000       0.904912
     1718.300000       0.904615
     1718.400000       0.904312
     1718.500000       0.904007
     1718.600000       0.903697
     1718.700000       0.903382
     1718.800000       0.903055
     1718.900000       0.902722
     1719.000000       0.902385
     1719.100000       0.902042
     1719.200000       0.901695
     1719.300000       0.901342
     1719.400000       0.900985
     1719.500000       0.900622
     1719.600000       0.900262
     1719.700000       0.899900
     1719.800000       0.899527
     1719.900000       0.899150
     1720.000000       0.898767
     1720.100000       0.898377
     1720.200000       0.897967
     1720.300000       0.897557
     1720.400000       0.897127
     1720.500000       0.896682
     1720.600000       0.896217
     1720.700000       0.895732
     1720.800000       0.895225
     1720.900000       0.894702
     1721.000000       0.894152
     1721.100000       0.893582
     1721.200000       0.892982
     1721.300000       0.892365
     1721.400000       0.891722
     1721.500000       0.891052
     1721.600000       0.890345
     1721.700000       0.889615
     1721.800000       0.888855
     1721.900000       0.888060
     1722.000000       0.887240
     1722.100000       0.886392
     1722.200000       0.885520
     1722.300000       0.884622
     1722.400000       0.883695
     1722.500000       0.882742
     1722.600000       0.881763
     1722.700000       0.880755
     1722.800000       0.879713
     1722.900000       0.878645
     1723.000000       0.877550
     1723.100000       0.876425
     1723.200000       0.875268
     1723.300000       0.874078
     1723.400000       0.872853
     1723.500000       0.871590
     1723.600000       0.870293
     1723.700000       0.868950
     1723.800000       0.867568
     1723.900000       0.866143
     1724.000000       0.864671
     1724.100000       0.863158
     1724.200000       0.861596
     1724.300000       0.859983
     1724.400000       0.858321
     1724.500000       0.856601
     1724.600000       0.854826
     1724.700000       0.852983
     1724.800000       0.851083
     1724.900000       0.849121
     1725.000000       0.847108
     1725.100000       0.845036
     1725.200000       0.842908
     1725.300000       0.840728
     1725.400000       0.838494
     1725.500000       0.836201
     1725.600000       0.833846
     1725.700000       0.831434
     1725.800000       0.828966
     1725.900000       0.826436
     1726.000000       0.823846
     1726.100000       0.821204
     1726.200000       0.818492
     1726.300000       0.815721
     1726.400000       0.812894
     1726.500000       0.809997
     1726.600000       0.807029
     1726.700000       0.803982
     1726.800000       0.800867
     1726.900000       0.797687
     1727.000000       0.794437
     1727.100000       0.791130
     1727.200000       0.787752
     1727.300000       0.784312
     1727.400000       0.780812
     1727.500000       0.777247
     1727.600000       0.773615
     1727.700000       0.769915
     1727.800000       0.766147
     1727.900000       0.762325
     1728.000000       0.758445
     1728.100000       0.754508
     1728.200000       0.750515
     1728.300000       0.746473
     1728.400000       0.742380
     1728.500000       0.738238
     1728.600000       0.734041
     1728.700000       0.729788
     1728.800000       0.725491
     1728.900000       0.721153
     1729.000000       0.716776
     1729.100000       0.712364
     1729.200000       0.707911
     1729.300000       0.703431
     1729.400000       0.698924
     1729.500000       0.694391
     1729.600000       0.689834
     1729.700000       0.685244
     1729.800000       0.680642
     1729.900000       0.676014
     1730.000000       0.671362
     1730.100000       0.666692
     1730.200000       0.661989
     1730.300000       0.657269
     1730.400000       0.652527
     1730.500000       0.647760
     1730.600000       0.642960
     1730.700000       0.638132
     1730.800000       0.633280
     1730.900000       0.628410
     1731.000000       0.623507
     1731.100000       0.618587
     1731.200000       0.613640
     1731.300000       0.608678
     1731.400000       0.603690
     1731.500000       0.598688
     1731.600000       0.593668
     1731.700000       0.588615
     1731.800000       0.583558
     1731.900000       0.578486
     1732.000000       0.573406
     1732.100000       0.568323
     1732.200000       0.563223
     1732.300000       0.558141
     1732.400000       0.553059
     1732.500000       0.547984
     1732.600000       0.542916
     1732.700000       0.537861
     1732.800000       0.532826
     1732.900000       0.527796
     1733.000000       0.522782
     1733.100000       0.517767
     1733.200000       0.512754
     1733.300000       0.507752
     1733.400000       0.502749
     1733.500000       0.497747
     1733.600000       0.492744
     1733.700000       0.487732
     1733.800000       0.482730
     1733.900000       0.477727
     1734.000000       0.472732
     1734.100000       0.467742
     1734.200000       0.462765
     1734.300000       0.457807
     1734.400000       0.452870
     1734.500000       0.447953
     1734.600000       0.443068
     1734.700000       0.438205
     1734.800000       0.433373
     1734.900000       0.428580
     1735.000000       0.423810
     1735.100000       0.419076
     1735.200000       0.414371
     1735.300000       0.409701
     1735.400000       0.405066
     1735.500000       0.400466
     1735.600000       0.395904
     1735.700000       0.391381
     1735.800000       0.386904
     1735.900000       0.382454
     1736.000000       0.378041
     1736.100000       0.373654
     1736.200000       0.369284
     1736.300000       0.364949
     1736.400000       0.360634
     1736.500000       0.356342
     1736.600000       0.352067
     1736.700000       0.347804
     1736.800000       0.343569
     1736.900000       0.339355
     1737.000000       0.335159
     1737.100000       0.330990
     1737.200000       0.326842
     1737.300000       0.322730
     1737.400000       0.318647
     1737.500000       0.314595
     1737.600000       0.310580
     1737.700000       0.306607
     1737.800000       0.302675
     1737.900000       0.298780
     1738.000000       0.294920
     1738.100000       0.291098
     1738.200000       0.287313
     1738.300000       0.283563
     1738.400000       0.279861
     1738.500000       0.276191
     1738.600000       0.272558
     1738.700000       0.268976
     1738.800000       0.265426
     1738.900000       0.261923
     1739.000000       0.258453
     1739.100000       0.255021
     1739.200000       0.251619
     1739.300000       0.248258
     1739.400000       0.244929
     1739.500000       0.241636
     1739.600000       0.238379
     1739.700000       0.235156
     1739.800000       0.231966
     1739.900000       0.228816
     1740.000000       0.225699
     1740.100000       0.222616
     1740.200000       0.219566
     1740.300000       0.216557
     1740.400000       0.213579
     1740.500000       0.210639
     1740.600000       0.207742
     1740.700000       0.204882
     1740.800000       0.202062
     1740.900000       0.199282
     1741.000000       0.196542
     1741.100000       0.193829
     1741.200000       0.191152
     1741.300000       0.188515
     1741.400000       0.185905
     1741.500000       0.183330
     1741.600000       0.180790
     1741.700000       0.178287
     1741.800000       0.175822
     1741.900000       0.173385
     1742.000000       0.170977
     1742.100000       0.168602
     1742.200000       0.166257
     1742.300000       0.163942
     1742.400000       0.161657
     1742.500000       0.159400
     1742.600000       0.157172
     1742.700000       0.154977
     1742.800000       0.152815
     1742.900000       0.150677
     1743.000000       0.148573
     1743.100000       0.146503
     1743.200000       0.144450
     1743.300000       0.142440
     1743.400000       0.140453
     1743.500000       0.138503
     1743.600000       0.136585
     1743.700000       0.134700
     1743.800000       0.132853
     1743.900000       0.131033
     1744.000000       0.129245
     1744.100000       0.127485
     1744.200000       0.125748
     1744.300000       0.124040
     1744.400000       0.122353
     1744.500000       0.120691
     1744.600000       0.119053
     1744.700000       0.117435
     1744.800000       0.115846
     1744.900000       0.114271
     1745.000000       0.112723
     1745.100000       0.111193
     1745.200000       0.109683
     1745.300000       0.108203
     1745.400000       0.106736
     1745.500000       0.105296
     1745.600000       0.103878
     1745.700000       0.102486
     1745.800000       0.101118
     1745.900000       0.099773
     1746.000000       0.098451
     1746.100000       0.097143
     1746.200000       0.095861
     1746.300000       0.094593
     1746.400000       0.093353
     1746.500000       0.092123
     1746.600000       0.090918
     1746.700000       0.089731
     1746.800000       0.088566
     1746.900000       0.087416
     1747.000000       0.086281
     1747.100000       0.085161
     1747.200000       0.084061
     1747.300000       0.082979
     1747.400000       0.081904
     1747.500000       0.080849
     1747.600000       0.079809
     1747.700000       0.078781
     1747.800000       0.077769
     1747.900000       0.076771
     1748.000000       0.075784
     1748.100000       0.074814
     1748.200000       0.073861
     1748.300000       0.072914
     1748.400000       0.071991
     1748.500000       0.071074
     1748.600000       0.070176
     1748.700000       0.069294
     1748.800000       0.068424
     1748.900000       0.067574
     1749.000000       0.066734
     1749.100000       0.065911
     1749.200000       0.065091
     1749.300000       0.064289
     1749.400000       0.063499
     1749.500000       0.062719
     1749.600000       0.061951
     1749.700000       0.061191
     1749.800000       0.060444
     1749.900000       0.059709
     1750.000000       0.058981
     1750.100000       0.058261
     1750.200000       0.057554
     1750.300000       0.056859
     1750.400000       0.056169
     1750.500000       0.055489
     1750.600000       0.054822
     1750.700000       0.054162
     1750.800000       0.053519
     1750.900000       0.052877
     1751.000000       0.052249
     1751.100000       0.051627
     1751.200000       0.051012
     1751.300000       0.050409
     1751.400000       0.049817
     1751.500000       0.049229
     1751.600000       0.048657
     1751.700000       0.048087
     1751.800000       0.047534
     1751.900000       0.046987
     1752.000000       0.046447
     1752.100000       0.045917
     1752.200000       0.045397
     1752.300000       0.044884
     1752.400000       0.044377
     1752.500000       0.043874
     1752.600000       0.043387
     1752.700000       0.042904
     1752.800000       0.042432
     1752.900000       0.041964
     1753.000000       0.041504
     1753.100000       0.041052
     1753.200000       0.040602
     1753.300000       0.040162
     1753.400000       0.039729
     1753.500000       0.039302
     1753.600000       0.038879
     1753.700000       0.038467
     1753.800000       0.038057
     1753.900000       0.037649
     1754.000000       0.037257
     1754.100000       0.036864
     1754.200000       0.036477
     1754.300000       0.036094
     1754.400000       0.035717
     1754.500000       0.035347
     1754.600000       0.034984
     1754.700000       0.034622
     1754.800000       0.034272
     1754.900000       0.033922
     1755.000000       0.033582
     1755.100000       0.033244
     1755.200000       0.032912
     1755.300000       0.032582
     1755.400000       0.032259
     1755.500000       0.031942
     1755.600000       0.031629
     1755.700000       0.031319
     1755.800000       0.031017
     1755.900000       0.030717
     1756.000000       0.030424
     1756.100000       0.030132
     1756.200000       0.029844
     1756.300000       0.029555
     1756.400000       0.029272
     1756.500000       0.028995
     1756.600000       0.028720
     1756.700000       0.028442
     1756.800000       0.028172
     1756.900000       0.027910
     1757.000000       0.027642
     1757.100000       0.027380
     1757.200000       0.027120
     1757.300000       0.026860
     1757.400000       0.026607
     1757.500000       0.026357
     1757.600000       0.026107
     1757.700000       0.025867
     1757.800000       0.025620
     1757.900000       0.025380
     1758.000000       0.025145
     1758.100000       0.024907
     1758.200000       0.024675
     1758.300000       0.024445
     1758.400000       0.024217
     1758.500000       0.023992
     1758.600000       0.023765
     1758.700000       0.023542
     1758.800000       0.023322
     1758.900000       0.023102
     1759.000000       0.022890
     1759.100000       0.022672
     1759.200000       0.022457
     1759.300000       0.022247
     1759.400000       0.022035
     1759.500000       0.021827
     1759.600000       0.021617
     1759.700000       0.021410
     1759.800000       0.021205
     1759.900000       0.021000
     1760.000000       0.020797
     1760.100000       0.020597
     1760.200000       0.020400
     1760.300000       0.020205
     1760.400000       0.020007
     1760.500000       0.019812
     1760.600000       0.019622
     1760.700000       0.019432
     1760.800000       0.019242
     1760.900000       0.019052
     1761.000000       0.018870
     1761.100000       0.018685
     1761.200000       0.018502
     1761.300000       0.018322
     1761.400000       0.018142
     1761.500000       0.017967
     1761.600000       0.017790
     1761.700000       0.017612
     1761.800000       0.017440
     1761.900000       0.017267
     1762.000000       0.017097
     1762.100000       0.016930
     1762.200000       0.016760
     1762.300000       0.016595
     1762.400000       0.016427
     1762.500000       0.016267
     1762.600000       0.016105
     1762.700000       0.015945
     1762.800000       0.015785
     1762.900000       0.015632
     1763.000000       0.015477
     1763.100000       0.015322
     1763.200000       0.015172
     1763.300000       0.015025
     1763.400000       0.014875
     1763.500000       0.014732
     1763.600000       0.014592
     1763.700000       0.014452
     1763.800000       0.014312
     1763.900000       0.014172
     1764.000000       0.014040
     1764.100000       0.013910
     1764.200000       0.013780
     1764.300000       0.013650
     1764.400000       0.013522
     1764.500000       0.013402
     1764.600000       0.013277
     1764.700000       0.013157
     1764.800000       0.013040
     1764.900000       0.012920
     1765.000000       0.012810
     1765.100000       0.012700
     1765.200000       0.012587
     1765.300000       0.012480
     1765.400000       0.012372
     1765.500000       0.012267
     1765.600000       0.012167
     1765.700000       0.012067
     1765.800000       0.011967
     1765.900000       0.011870
     1766.000000       0.011780
     1766.100000       0.011690
     1766.200000       0.011600
     1766.300000       0.011510
     1766.400000       0.011430
     1766.500000       0.011347
     1766.600000       0.011267
     1766.700000       0.011187
     1766.800000       0.011117
     1766.900000       0.011047
     1767.000000       0.010977
     1767.100000       0.010907
     1767.200000       0.010837
     1767.300000       0.010777
     1767.400000       0.010715
     1767.500000       0.010655
     1767.600000       0.010595
     1767.700000       0.010540
     1767.800000       0.010485
     1767.900000       0.010430
     1768.000000       0.010380
     1768.100000       0.010330
     1768.200000       0.010280
     1768.300000       0.010235
     1768.400000       0.010187
     1768.500000       0.010145
     1768.600000       0.010100
     1768.700000       0.010057
     1768.800000       0.010017
     1768.900000       0.009977
     1769.000000       0.009945
     1769.100000       0.009907
     1769.200000       0.009867
     1769.300000       0.009837
     1769.400000       0.009802
     1769.500000       0.009772
     1769.600000       0.009737
     1769.700000       0.009707
     1769.800000       0.009682
     1769.900000       0.009655
     1770.000000       0.009627
     1770.100000       0.009597
     1770.200000       0.009575
     1770.300000       0.009547
     1770.400000       0.009525
     1770.500000       0.009497
     1770.600000       0.009475
     1770.700000       0.009455
     1770.800000       0.009432
     1770.900000       0.009407
     1771.000000       0.009385
     1771.100000       0.009365
     1771.200000       0.009345
     1771.300000       0.009322
     1771.400000       0.009295
     1771.500000       0.009275
     1771.600000       0.009255
     1771.700000       0.009235
     1771.800000       0.009215
     1771.900000       0.009195
     1772.000000       0.009175
     1772.100000       0.009150
     1772.200000       0.009125
     1772.300000       0.009105
     1772.400000       0.009085
     1772.500000       0.009065
     1772.600000       0.009045
     1772.700000       0.009022
     1772.800000       0.008995
     1772.900000       0.008975
     1773.000000       0.008952
     1773.100000       0.008927
     1773.200000       0.008905
     1773.300000       0.008882
     1773.400000       0.008857
     1773.500000       0.008835
     1773.600000       0.008812
     1773.700000       0.008785
     1773.800000       0.008762
     1773.900000       0.008735
     1774.000000       0.008712
     1774.100000       0.008682
     1774.200000       0.008657
     1774.300000       0.008632
     1774.400000       0.008605
     1774.500000       0.008577
     1774.600000       0.008552
     1774.700000       0.008522
     1774.800000       0.008492
     1774.900000       0.008465
     1775.000000       0.008435
     1775.100000       0.008407
     1775.200000       0.008377
     1775.300000       0.008347
     1775.400000       0.008317
     1775.500000       0.008292
     1775.600000       0.008262
     1775.700000       0.008232
     1775.800000       0.008205
     1775.900000       0.008175
     1776.000000       0.008145
     1776.100000       0.008115
     1776.200000       0.008085
     1776.300000       0.008055
     1776.400000       0.008025
     1776.500000       0.008002
     1776.600000       0.007975
     1776.700000       0.007945
     1776.800000       0.007915
     1776.900000       0.007885
     1777.000000       0.007855
     1777.100000       0.007825
     1777.200000       0.007795
     1777.300000       0.007765
     1777.400000       0.007737
     1777.500000       0.007712
     1777.600000       0.007682
     1777.700000       0.007652
     1777.800000       0.007625
     1777.900000       0.007595
     1778.000000       0.007565
     1778.100000       0.007537
     1778.200000       0.007512
     1778.300000       0.007482
     1778.400000       0.007455
     1778.500000       0.007427
     1778.600000       0.007402
     1778.700000       0.007377
     1778.800000       0.007352
     1778.900000       0.007322
     1779.000000       0.007297
     1779.100000       0.007272
     1779.200000       0.007247
     1779.300000       0.007225
     1779.400000       0.007202
     1779.500000       0.007177
     1779.600000       0.007152
     1779.700000       0.007127
     1779.800000       0.007105
     1779.900000       0.007082
     1780.000000       0.007057
     1780.100000       0.007035
     1780.200000       0.007012
     1780.300000       0.006987
     1780.400000       0.006965
     1780.500000       0.006945
     1780.600000       0.006922
     1780.700000       0.006895
     1780.800000       0.006875
     1780.900000       0.006855
     1781.000000       0.006832
     1781.100000       0.006805
     1781.200000       0.006785
     1781.300000       0.006765
     1781.400000       0.006740
     1781.500000       0.006715
     1781.600000       0.006695
     1781.700000       0.006675
     1781.800000       0.006652
     1781.900000       0.006625
     1782.000000       0.006605
     1782.100000       0.006585
     1782.200000       0.006565
     1782.300000       0.006542
     1782.400000       0.006520
     1782.500000       0.006495
     1782.600000       0.006475
     1782.700000       0.006455
     1782.800000       0.006435
     1782.900000       0.006412
     1783.000000       0.006392
     1783.100000       0.006372
     1783.200000       0.006352
     1783.300000       0.006332
     1783.400000       0.006312
     1783.500000       0.006292
     1783.600000       0.006272
     1783.700000       0.006252
     1783.800000       0.006232
     1783.900000       0.006212
     1784.000000       0.006192
     1784.100000       0.006172
     1784.200000       0.006152
     1784.300000       0.006132
     1784.400000       0.006112
     1784.500000       0.006092
     1784.600000       0.006072
     1784.700000       0.006052
     1784.800000       0.006032
     1784.900000       0.006012
     1785.000000       0.005992
     1785.100000       0.005975
     1785.200000       0.005960
     1785.300000       0.005942
     1785.400000       0.005922
     1785.500000       0.005905
     1785.600000       0.005892
     1785.700000       0.005872
     1785.800000       0.005860
     1785.900000       0.005842
     1786.000000       0.005825
     1786.100000       0.005812
     1786.200000       0.005800
     1786.300000       0.005785
     1786.400000       0.005770
     1786.500000       0.005760
     1786.600000       0.005745
     1786.700000       0.005735
     1786.800000       0.005722
     1786.900000       0.005710
     1787.000000       0.005700
     1787.100000       0.005690
     1787.200000       0.005680
     1787.300000       0.005675
     1787.400000       0.005665
     1787.500000       0.005655
     1787.600000       0.005650
     1787.700000       0.005640
     1787.800000       0.005635
     1787.900000       0.005625
     1788.000000       0.005622
     1788.100000       0.005615
     1788.200000       0.005612
     1788.300000       0.005605
     1788.400000       0.005605
     1788.500000       0.005602
     1788.600000       0.005595
     1788.700000       0.005595
     1788.800000       0.005595
     1788.900000       0.005595
     1789.000000       0.005595
     1789.100000       0.005595
     1789.200000       0.005595
     1789.300000       0.005595
     1789.400000       0.005595
     1789.500000       0.005595
     1789.600000       0.005602
     1789.700000       0.005605
     1789.800000       0.005605
     1789.900000       0.005605
     1790.000000       0.005612
     1790.100000       0.005615
     1790.200000       0.005615
     1790.300000       0.005622
     1790.400000       0.005625
     1790.500000       0.005625
     1790.600000       0.005625
     1790.700000       0.005635
     1790.800000       0.005635
     1790.900000       0.005635
     1791.000000       0.005635
     1791.100000       0.005635
     1791.200000       0.005637
     1791.300000       0.005640
     1791.400000       0.005640
     1791.500000       0.005640
     1791.600000       0.005640
     1791.700000       0.005640
     1791.800000       0.005640
     1791.900000       0.005635
     1792.000000       0.005635
     1792.100000       0.005630
     1792.200000       0.005627
     1792.300000       0.005625
     1792.400000       0.005620
     1792.500000       0.005615
     1792.600000       0.005605
     1792.700000       0.005597
     1792.800000       0.005590
     1792.900000       0.005580
     1793.000000       0.005567
     1793.100000       0.005557
     1793.200000       0.005545
     1793.300000       0.005530
     1793.400000       0.005515
     1793.500000       0.005500
     1793.600000       0.005480
     1793.700000       0.005460
     1793.800000       0.005440
     1793.900000       0.005420
     1794.000000       0.005400
     1794.100000       0.005377
     1794.200000       0.005350
     1794.300000       0.005327
     1794.400000       0.005300
     1794.500000       0.005270
     1794.600000       0.005240
     1794.700000       0.005210
     1794.800000       0.005177
     1794.900000       0.005140
     1795.000000       0.005110
     1795.100000       0.005070
     1795.200000       0.005035
     1795.300000       0.004995
     1795.400000       0.004955
     1795.500000       0.004915
     1795.600000       0.004870
     1795.700000       0.004830
     1795.800000       0.004787
     1795.900000       0.004740
     1796.000000       0.004695
     1796.100000       0.004647
     1796.200000       0.004600
     1796.300000       0.004550
     1796.400000       0.004500
     1796.500000       0.004450
     1796.600000       0.004397
     1796.700000       0.004347
     1796.800000       0.004297
     1796.900000       0.004247
     1797.000000       0.004187
     1797.100000       0.004137
     1797.200000       0.004082
     1797.300000       0.004027
     1797.400000       0.003975
     1797.500000       0.003917
     1797.600000       0.003865
     1797.700000       0.003807
     1797.800000       0.003747
     1797.900000       0.003695
     1798.000000       0.003637
     1798.100000       0.003585
     1798.200000       0.003525
     1798.300000       0.003470
     1798.400000       0.003415
     1798.500000       0.003357
     1798.600000       0.003305
     1798.700000       0.003252
     1798.800000       0.003195
     1798.900000       0.003145
     1799.000000       0.003092
     1799.100000       0.003037
     1799.200000       0.002987
     1799.300000       0.002937
     1799.400000       0.002887
     1799.500000       0.002837
     1799.600000       0.002792
     1799.700000       0.002742
     1799.800000       0.002695
     1799.900000       0.002652
     1800.000000       0.002605
     1800.100000       0.002562
     1800.200000       0.002522
     1800.300000       0.002482
     1800.400000       0.002442
     1800.500000       0.002402
     1800.600000       0.002365
     1800.700000       0.002325
     1800.800000       0.002295
     1800.900000       0.002260
     1801.000000       0.002225
     1801.100000       0.002195
     1801.200000       0.002165
     1801.300000       0.002140
     1801.400000       0.002115
     1801.500000       0.002090
     1801.600000       0.002065
     1801.700000       0.002042
     1801.800000       0.002022
     1801.900000       0.002002
     1802.000000       0.001985
     1802.100000       0.001970
     1802.200000       0.001952
     1802.300000       0.001942
     1802.400000       0.001925
     1802.500000       0.001915
     1802.600000       0.001905
     1802.700000       0.001900
     1802.800000       0.001892
     1802.900000       0.001885
     1803.000000       0.001882
     1803.100000       0.001875
     1803.200000       0.001872
     1803.300000       0.001872
     1803.400000       0.001872
     1803.500000       0.001872
     1803.600000       0.001872
     1803.700000       0.001875
     1803.800000       0.001882
     1803.900000       0.001882
     1804.000000       0.001892
     1804.100000       0.001892
     1804.200000       0.001902
     1804.300000       0.001905
     1804.400000       0.001912
     1804.500000       0.001922
     1804.600000       0.001932
     1804.700000       0.001937
     1804.800000       0.001945
     1804.900000       0.001955
     1805.000000       0.001965
     1805.100000       0.001975
     1805.200000       0.001985
     1805.300000       0.001995
     1805.400000       0.002005
     1805.500000       0.002015
     1805.600000       0.002025
     1805.700000       0.002032
     1805.800000       0.002042
     1805.900000       0.002052
     1806.000000       0.002062
     1806.100000       0.002067
     1806.200000       0.002077
     1806.300000       0.002085
     1806.400000       0.002092
     1806.500000       0.002097
     1806.600000       0.002105
     1806.700000       0.002112
     1806.800000       0.002115
     1806.900000       0.002117
     1807.000000       0.002125
     1807.100000       0.002125
     1807.200000       0.002127
     1807.300000       0.002127
     1807.400000       0.002132
     1807.500000       0.002132
     1807.600000       0.002127
     1807.700000       0.002127
     1807.800000       0.002127
     1807.900000       0.002125
     1808.000000       0.002117
     1808.100000       0.002117
     1808.200000       0.002107
     1808.300000       0.002105
     1808.400000       0.002097
     1808.500000       0.002092
     1808.600000       0.002082
     1808.700000       0.002075
     1808.800000       0.002067
     1808.900000       0.002057
     1809.000000       0.002042
     1809.100000       0.002032
     1809.200000       0.002017
     1809.300000       0.002007
     1809.400000       0.001992
     1809.500000       0.001977
     1809.600000       0.001965
     1809.700000       0.001947
     1809.800000       0.001932
     1809.900000       0.001915
     1810.000000       0.001897
     1810.100000       0.001877
     1810.200000       0.001857
     1810.300000       0.001845
     1810.400000       0.001825
     1810.500000       0.001805
     1810.600000       0.001785
     1810.700000       0.001765
     1810.800000       0.001745
     1810.900000       0.001725
     1811.000000       0.001705
     1811.100000       0.001685
     1811.200000       0.001665
     1811.300000       0.001645
     1811.400000       0.001625
     1811.500000       0.001597
     1811.600000       0.001575
     1811.700000       0.001555
     1811.800000       0.001535
     1811.900000       0.001515
     1812.000000       0.001495
     1812.100000       0.001480
     1812.200000       0.001462
     1812.300000       0.001442
     1812.400000       0.001425
     1812.500000       0.001405
     1812.600000       0.001385
     1812.700000       0.001365
     1812.800000       0.001352
     1812.900000       0.001335
     1813.000000       0.001322
     1813.100000       0.001305
     1813.200000       0.001292
     1813.300000       0.001275
     1813.400000       0.001262
     1813.500000       0.001245
     1813.600000       0.001232
     1813.700000       0.001222
     1813.800000       0.001212
     1813.900000       0.001202
     1814.000000       0.001192
     1814.100000       0.001182
     1814.200000       0.001172
     1814.300000       0.001162
     1814.400000       0.001152
     1814.500000       0.001150
     1814.600000       0.001142
     1814.700000       0.001132
     1814.800000       0.001132
     1814.900000       0.001122
     1815.000000       0.001122
     1815.100000       0.001112
     1815.200000       0.001112
     1815.300000       0.001112
     1815.400000       0.001105
     1815.500000       0.001102
     1815.600000       0.001102
     1815.700000       0.001102
     1815.800000       0.001102
     1815.900000       0.001102
     1816.000000       0.001102
     1816.100000       0.001102
     1816.200000       0.001102
     1816.300000       0.001102
     1816.400000       0.001102
     1816.500000       0.001102
     1816.600000       0.001112
     1816.700000       0.001112
     1816.800000       0.001112
     1816.900000       0.001112
     1817.000000       0.001112
     1817.100000       0.001122
     1817.200000       0.001122
     1817.300000       0.001122
     1817.400000       0.001122
     1817.500000       0.001130
     1817.600000       0.001132
     1817.700000       0.001132
     1817.800000       0.001132
     1817.900000       0.001132
     1818.000000       0.001137
     1818.100000       0.001142
     1818.200000       0.001142
     1818.300000       0.001142
     1818.400000       0.001142
     1818.500000       0.001142
     1818.600000       0.001142
     1818.700000       0.001142
     1818.800000       0.001142
     1818.900000       0.001142
     1819.000000       0.001142
     1819.100000       0.001142
     1819.200000       0.001137
     1819.300000       0.001132
     1819.400000       0.001132
     1819.500000       0.001127
     1819.600000       0.001122
     1819.700000       0.001122
     1819.800000       0.001112
     1819.900000       0.001112
     1820.000000       0.001102
     1820.100000       0.001102
     1820.200000       0.001092
     1820.300000       0.001087
     1820.400000       0.001082
     1820.500000       0.001072
     1820.600000       0.001062
     1820.700000       0.001052
     1820.800000       0.001047
     1820.900000       0.001037
     1821.000000       0.001027
     1821.100000       0.001017
     1821.200000       0.001007
     1821.300000       0.000992
     1821.400000       0.000982
     1821.500000       0.000972
     1821.600000       0.000962
     1821.700000       0.000950
     1821.800000       0.000937
     1821.900000       0.000922
     1822.000000       0.000912
     1822.100000       0.000897
     1822.200000       0.000882
     1822.300000       0.000870
     1822.400000       0.000857
     1822.500000       0.000842
     1822.600000       0.000827
     1822.700000       0.000812
     1822.800000       0.000800
     1822.900000       0.000782
     1823.000000       0.000770
     1823.100000       0.000752
     1823.200000       0.000740
     1823.300000       0.000722
     1823.400000       0.000710
     1823.500000       0.000692
     1823.600000       0.000680
     1823.700000       0.000667
     1823.800000       0.000650
     1823.900000       0.000637
     1824.000000       0.000622
     1824.100000       0.000610
     1824.200000       0.000592
     1824.300000       0.000580
     1824.400000       0.000567
     1824.500000       0.000552
     1824.600000       0.000540
     1824.700000       0.000527
     1824.800000       0.000512
     1824.900000       0.000500
     1825.000000       0.000490
     1825.100000       0.000472
     1825.200000       0.000460
     1825.300000       0.000450
     1825.400000       0.000440
     1825.500000       0.000430
     1825.600000       0.000417
     1825.700000       0.000402
     1825.800000       0.000392
     1825.900000       0.000382
     1826.000000       0.000372
     1826.100000       0.000362
     1826.200000       0.000352
     1826.300000       0.000342
     1826.400000       0.000332
     1826.500000       0.000327
     1826.600000       0.000320
     1826.700000       0.000310
     1826.800000       0.000300
     1826.900000       0.000290
     1827.000000       0.000282
     1827.100000       0.000280
     1827.200000       0.000270
     1827.300000       0.000260
     1827.400000       0.000252
     1827.500000       0.000250
     1827.600000       0.000240
     1827.700000       0.000230
     1827.800000       0.000227
     1827.900000       0.000220
     1828.000000       0.000210
     1828.100000       0.000207
     1828.200000       0.000200
     1828.300000       0.000190
     1828.400000       0.000190
     1828.500000       0.000180
     1828.600000       0.000170
     1828.700000       0.000170
     1828.800000       0.000160
     1828.900000       0.000152
     1829.000000       0.000150
     1829.100000       0.000140
     1829.200000       0.000137
     1829.300000       0.000130
     1829.400000       0.000120
     1829.500000       0.000117
     1829.600000       0.000110
     1829.700000       0.000100
     1829.800000       0.000092
     1829.900000       0.000090
     1830.000000       0.000080
     1830.100000       0.000070
     1830.200000       0.000070
     1830.300000       0.000060
     1830.400000       0.000050
     1830.500000       0.000040
     1830.600000       0.000040
     1830.700000       0.000030
     1830.800000       0.000020
     1830.900000       0.000010
     1831.000000       0.000000
     1831.100000       0.000000
     1831.200000       0.000000
     1831.300000       0.000000
     1831.400000       0.000000
     1831.500000       0.000000
     1831.600000       0.000000
     1831.700000       0.000000
     1831.800000       0.000000
     1831.900000       0.000000
     1832.000000       0.000000
     1832.100000       0.000000
     1832.200000       0.000000
     1832.300000       0.000000
     1832.400000       0.000000
     1832.500000       0.000000
     1832.600000       0.000000
     1832.700000       0.000000
     1832.800000       0.000000
     1832.900000       0.000000
     1833.000000       0.000000
     1833.100000       0.000000
     1833.200000       0.000000
     1833.300000       0.000000
     1833.400000       0.000000
     1833.500000       0.000000
     1833.600000       0.000000
     1833.700000       0.000000
     1833.800000       0.000000
     1833.900000       0.000000
     1834.000000       0.000000
     1834.100000       0.000000
     1834.200000       0.000000
     1834.300000       0.000000
     1834.400000       0.000000
     1834.500000       0.000000
     1834.600000       0.000000
     1834.700000       0.000000
     1834.800000       0.000000
     1834.900000       0.000000
     1835.000000       0.000000
     1835.100000       0.000000
     1835.200000       0.000000
     1835.300000       0.000000
     1835.400000       0.000000
     1835.500000       0.000000
     1835.600000       0.000000
     1835.700000       0.000000
     1835.800000       0.000000
     1835.900000       0.000000
     1836.000000       0.000000
     1836.100000       0.000000
     1836.200000       0.000000
     1836.300000       0.000000
     1836.400000       0.000000
     1836.500000       0.000000
     1836.600000       0.000000
     1836.700000       0.000000
     1836.800000       0.000000
     1836.900000       0.000000
     1837.000000       0.000000
     1837.100000       0.000000
     1837.200000       0.000000
     1837.300000       0.000000
     1837.400000       0.000000
     1837.500000       0.000000
     1837.600000       0.000000
     1837.700000       0.000000
     1837.800000       0.000000
     1837.900000       0.000000
     1838.000000       0.000000
     1838.100000       0.000000
     1838.200000       0.000000
     1838.300000       0.000000
     1838.400000       0.000000
     1838.500000       0.000000
     1838.600000       0.000000
     1838.700000       0.000000
     1838.800000       0.000000
     1838.900000       0.000000
     1839.000000       0.000000
     1839.100000       0.000000
     1839.200000       0.000000
     1839.300000       0.000000
     1839.400000       0.000000
     1839.500000       0.000000
     1839.600000       0.000000
     1839.700000       0.000000
     1839.800000       0.000000
     1839.900000       0.000000
     1840.000000       0.000000
     1840.100000       0.000000
     1840.200000       0.000000
     1840.300000       0.000000
     1840.400000       0.000000
     1840.500000       0.000000
     1840.600000       0.000000
     1840.700000       0.000000
     1840.800000       0.000000
     1840.900000       0.000000
     1841.000000       0.000000
     1841.100000       0.000000
     1841.200000       0.000000
     1841.300000       0.000000
     1841.400000       0.000000
     1841.500000       0.000000
     1841.600000       0.000000
     1841.700000       0.000000
     1841.800000       0.000000
     1841.900000       0.000000
     1842.000000       0.000000
     1842.100000       0.000000
     1842.200000       0.000000
     1842.300000       0.000000
     1842.400000       0.000000
     1842.500000       0.000000
     1842.600000       0.000000
     1842.700000       0.000000
     1842.800000       0.000000
     1842.900000       0.000000
     1843.000000       0.000000
     1843.100000       0.000000
     1843.200000       0.000000
     1843.300000       0.000000
     1843.400000       0.000000
     1843.500000       0.000000
     1843.600000       0.000000
     1843.700000       0.000000
     1843.800000       0.000000
     1843.900000       0.000000
     1844.000000       0.000000
     1844.100000       0.000000
     1844.200000       0.000000
     1844.300000       0.000000
     1844.400000       0.000000
     1844.500000       0.000000
     1844.600000       0.000000
     1844.700000       0.000000
     1844.800000       0.000000
     1844.900000       0.000000
     1845.000000       0.000000
     1845.100000       0.000000
     1845.200000       0.000000
     1845.300000       0.000000
     1845.400000       0.000000
     1845.500000       0.000000
     1845.600000       0.000000
     1845.700000       0.000000
     1845.800000       0.000000
     1845.900000       0.000000
     1846.000000       0.000000
     1846.100000       0.000000
     1846.200000       0.000000
     1846.300000       0.000000
     1846.400000       0.000000
     1846.500000       0.000000
     1846.600000       0.000000
     1846.700000       0.000000
     1846.800000       0.000000
     1846.900000       0.000000
     1847.000000       0.000000
     1847.100000       0.000000
     1847.200000       0.000000
     1847.300000       0.000000
     1847.400000       0.000000
     1847.500000       0.000000
     1847.600000       0.000000
     1847.700000       0.000000
     1847.800000       0.000000
     1847.900000       0.000000
     1848.000000       0.000000
     1848.100000       0.000000
     1848.200000       0.000000
     1848.300000       0.000000
     1848.400000       0.000000
     1848.500000       0.000000
     1848.600000       0.000000
     1848.700000       0.000000
     1848.800000       0.000000
     1848.900000       0.000000
     1849.000000       0.000000
     1849.100000       0.000000
     1849.200000       0.000000
     1849.300000       0.000000
     1849.400000       0.000000
     1849.500000       0.000000
     1849.600000       0.000000
     1849.700000       0.000000
     1849.800000       0.000000
     1849.900000       0.000000
     1850.000000       0.000000
     1850.100000       0.000000
     1850.200000       0.000000
     1850.300000       0.000000
     1850.400000       0.000000
     1850.500000       0.000000
     1850.600000       0.000000
     1850.700000       0.000000
     1850.800000       0.000000
     1850.900000       0.000000
     1851.000000       0.000000
     1851.100000       0.000000
     1851.200000       0.000000
     1851.300000       0.000000
     1851.400000       0.000000
     1851.500000       0.000000
     1851.600000       0.000000
     1851.700000       0.000000
     1851.800000       0.000000
     1851.900000       0.000000
     1852.000000       0.000000
     1852.100000       0.000000
     1852.200000       0.000000
     1852.300000       0.000000
     1852.400000       0.000000
     1852.500000       0.000000
     1852.600000       0.000000
     1852.700000       0.000000
     1852.800000       0.000000
     1852.900000       0.000000
     1853.000000       0.000000
     1853.100000       0.000000
     1853.200000       0.000000
     1853.300000       0.000000
     1853.400000       0.000000
     1853.500000       0.000000
     1853.600000       0.000000
     1853.700000       0.000000
     1853.800000       0.000000
     1853.900000       0.000000
     1854.000000       0.000000
     1854.100000       0.000000
     1854.200000       0.000000
     1854.300000       0.000000
     1854.400000       0.000000
     1854.500000       0.000000
     1854.600000       0.000000
     1854.700000       0.000000
     1854.800000       0.000000
     1854.900000       0.000000
     1855.000000       0.000000
     1855.100000       0.000000
     1855.200000       0.000000
     1855.300000       0.000000
     1855.400000       0.000000
     1855.500000       0.000000
     1855.600000       0.000000
     1855.700000       0.000000
     1855.800000       0.000000
     1855.900000       0.000000
     1856.000000       0.000000
     1856.100000       0.000000
     1856.200000       0.000000
     1856.300000       0.000000
     1856.400000       0.000000
     1856.500000       0.000000
     1856.600000       0.000000
     1856.700000       0.000000
     1856.800000       0.000000
     1856.900000       0.000000
     1857.000000       0.000000
     1857.100000       0.000000
     1857.200000       0.000000
     1857.300000       0.000000
     1857.400000       0.000000
     1857.500000       0.000000
     1857.600000       0.000000
     1857.700000       0.000000
     1857.800000       0.000000
     1857.900000       0.000000
     1858.000000       0.000000
     1858.100000       0.000000
     1858.200000       0.000000
     1858.300000       0.000000
     1858.400000       0.000000
     1858.500000       0.000000
     1858.600000       0.000000
     1858.700000       0.000000
     1858.800000       0.000000
     1858.900000       0.000000
     1859.000000       0.000000
     1859.100000       0.000000
     1859.200000       0.000000
     1859.300000       0.000000
     1859.400000       0.000000
     1859.500000       0.000000
     1859.600000       0.000000
     1859.700000       0.000000
     1859.800000       0.000000
     1859.900000       0.000000
     1860.000000       0.000000
     1860.100000       0.000000
     1860.200000       0.000000
     1860.300000       0.000000
     1860.400000       0.000000
     1860.500000       0.000000
     1860.600000       0.000000
     1860.700000       0.000000
     1860.800000       0.000000
     1860.900000       0.000000
     1861.000000       0.000000
     1861.100000       0.000000
     1861.200000       0.000000
     1861.300000       0.000000
     1861.400000       0.000000
     1861.500000       0.000000
     1861.600000       0.000000
     1861.700000       0.000000
     1861.800000       0.000000
     1861.900000       0.000000
     1862.000000       0.000000
     1862.100000       0.000000
     1862.200000       0.000000
     1862.300000       0.000000
     1862.400000       0.000000
     1862.500000       0.000000
     1862.600000       0.000000
     1862.700000       0.000000
     1862.800000       0.000000
     1862.900000       0.000000
     1863.000000       0.000000
     1863.100000       0.000000
     1863.200000       0.000000
     1863.300000       0.000000
     1863.400000       0.000000
     1863.500000       0.000000
     1863.600000       0.000000
     1863.700000       0.000000
     1863.800000       0.000000
     1863.900000       0.000000
     1864.000000       0.000000
     1864.100000       0.000000
     1864.200000       0.000000
     1864.300000       0.000000
     1864.400000       0.000000
     1864.500000       0.000000
     1864.600000       0.000000
     1864.700000       0.000000
     1864.800000       0.000000
     1864.900000       0.000000
     1865.000000       0.000000
     1865.100000       0.000000
     1865.200000       0.000000
     1865.300000       0.000000
     1865.400000       0.000000
     1865.500000       0.000000
     1865.600000       0.000000
     1865.700000       0.000000
     1865.800000       0.000000
     1865.900000       0.000000
     1866.000000       0.000000
     1866.100000       0.000000
     1866.200000       0.000000
     1866.300000       0.000000
     1866.400000       0.000000
     1866.500000       0.000000
     1866.600000       0.000000
     1866.700000       0.000000
     1866.800000       0.000000
     1866.900000       0.000000
     1867.000000       0.000000
     1867.100000       0.000000
     1867.200000       0.000000
     1867.300000       0.000000
     1867.400000       0.000000
     1867.500000       0.000000
     1867.600000       0.000000
     1867.700000       0.000000
     1867.800000       0.000000
     1867.900000       0.000000
     1868.000000       0.000000
     1868.100000       0.000000
     1868.200000       0.000000
     1868.300000       0.000000
     1868.400000       0.000000
     1868.500000       0.000000
     1868.600000       0.000000
     1868.700000       0.000000
     1868.800000       0.000000
     1868.900000       0.000000
     1869.000000       0.000000
     1869.100000       0.000000
     1869.200000       0.000000
     1869.300000       0.000000
     1869.400000       0.000000
     1869.500000       0.000000
     1869.600000       0.000000
     1869.700000       0.000000
     1869.800000       0.000000
     1869.900000       0.000000
     1870.000000       0.000000
     1870.100000       0.000000
     1870.200000       0.000000
     1870.300000       0.000000
     1870.400000       0.000000
     1870.500000       0.000000
     1870.600000       0.000000
     1870.700000       0.000000
     1870.800000       0.000000
     1870.900000       0.000000
     1871.000000       0.000000
     1871.100000       0.000000
     1871.200000       0.000000
     1871.300000       0.000000
     1871.400000       0.000000
     1871.500000       0.000000
     1871.600000       0.000000
     1871.700000       0.000000
     1871.800000       0.000000
     1871.900000       0.000000
     1872.000000       0.000000
     1872.100000       0.000000
     1872.200000       0.000000
     1872.300000       0.000000
     1872.400000       0.000000
     1872.500000       0.000000
     1872.600000       0.000000
     1872.700000       0.000000
     1872.800000       0.000000
     1872.900000       0.000000
