6,    channel 6 SRF extraacted from L9_OLI2_Ball_RSR.v1.0.xlsx (ch_res_6.txt)
Number of data points:
183
Wavenumber (cm-1)   Filter response
     5892.751900       0.000659
     5896.226400       0.000731
     5899.705000       0.000807
     5903.187700       0.000903
     5906.674500       0.001005
     5910.165500       0.001129
     5913.660600       0.001266
     5917.159800       0.001420
     5920.663100       0.001609
     5924.170600       0.001828
     5927.682300       0.002072
     5931.198100       0.002366
     5934.718100       0.002693
     5938.242300       0.003084
     5941.770600       0.003525
     5945.303200       0.004053
     5948.840000       0.004651
     5952.381000       0.005370
     5955.926100       0.006192
     5959.475600       0.007203
     5963.029200       0.008352
     5966.587100       0.009442
     5970.149300       0.010467
     5973.715700       0.011965
     5977.286300       0.013992
     5980.861200       0.016471
     5984.440500       0.019261
     5988.024000       0.022714
     5991.611700       0.026729
     5995.203800       0.031761
     5998.800200       0.037323
     6002.401000       0.044436
     6006.006000       0.052660
     6009.615400       0.062656
     6013.229100       0.074023
     6016.847200       0.088476
     6020.469600       0.105936
     6024.096400       0.126294
     6027.727500       0.148155
     6031.363100       0.176094
     6035.003000       0.207482
     6038.647300       0.245540
     6042.296100       0.286623
     6045.949200       0.337238
     6049.606800       0.391094
     6053.268800       0.450914
     6056.935200       0.511232
     6060.606100       0.578294
     6064.281400       0.641869
     6067.961200       0.703830
     6071.645400       0.760368
     6075.334100       0.814323
     6079.027400       0.861493
     6082.725100       0.901288
     6086.427300       0.938631
     6090.134000       0.961277
     6093.845200       0.976468
     6097.561000       0.985591
     6101.281300       0.992435
     6105.006100       0.997234
     6108.735500       0.998769
     6112.469400       1.000000
     6116.208000       0.998558
     6119.951000       0.997115
     6123.698700       0.995282
     6127.451000       0.993337
     6131.207800       0.991001
     6134.969300       0.987818
     6138.735400       0.986812
     6142.506100       0.985098
     6146.281500       0.982742
     6150.061500       0.981404
     6153.846200       0.979538
     6157.635500       0.977671
     6161.429500       0.976105
     6165.228100       0.974593
     6169.031500       0.972848
     6172.839500       0.970952
     6176.652300       0.969850
     6180.469700       0.968440
     6184.291900       0.967002
     6188.118800       0.965616
     6191.950500       0.964259
     6195.786900       0.963009
     6199.628000       0.962290
     6203.473900       0.961570
     6207.324600       0.960296
     6211.180100       0.958780
     6215.040400       0.957777
     6218.905500       0.957512
     6222.775400       0.957159
     6226.650100       0.956555
     6230.529600       0.955659
     6234.414000       0.953481
     6238.303200       0.955037
     6242.197300       0.953664
     6246.096200       0.952302
     6250.000000       0.952028
     6253.908700       0.950582
     6257.822300       0.949075
     6261.740800       0.948013
     6265.664200       0.947684
     6269.592500       0.946345
     6273.525700       0.946271
     6277.463900       0.945825
     6281.407000       0.945584
     6285.355100       0.945534
     6289.308200       0.945748
     6293.266200       0.946064
     6297.229200       0.946226
     6301.197200       0.946255
     6305.170200       0.946243
     6309.148300       0.946192
     6313.131300       0.945471
     6317.119400       0.944083
     6321.112500       0.942412
     6325.110700       0.940505
     6329.113900       0.937478
     6333.122200       0.933010
     6337.135600       0.925945
     6341.154100       0.916211
     6345.177700       0.903652
     6349.206300       0.889580
     6353.240200       0.869431
     6357.279100       0.847657
     6361.323200       0.816472
     6365.372400       0.784311
     6369.426800       0.742805
     6373.486300       0.699258
     6377.551000       0.651512
     6381.620900       0.601726
     6385.696000       0.549538
     6389.776400       0.495001
     6393.861900       0.438838
     6397.952700       0.388409
     6402.048700       0.339366
     6406.149900       0.300046
     6410.256400       0.261056
     6414.368200       0.226914
     6418.485200       0.194080
     6422.607600       0.167165
     6426.735200       0.142529
     6430.868200       0.122681
     6435.006400       0.104610
     6439.150000       0.088892
     6443.299000       0.077231
     6447.453300       0.066557
     6451.612900       0.056940
     6455.777900       0.048627
     6459.948300       0.041476
     6464.124100       0.035855
     6468.305300       0.030678
     6472.491900       0.027016
     6476.683900       0.023353
     6480.881400       0.020510
     6485.084300       0.017733
     6489.292700       0.015646
     6493.506500       0.013637
     6497.725800       0.012080
     6501.950600       0.010630
     6506.180900       0.009577
     6510.416700       0.008788
     6514.658000       0.007914
     6518.904800       0.006991
     6523.157200       0.006247
     6527.415100       0.005527
     6531.678600       0.004966
     6535.947700       0.004420
     6540.222400       0.003956
     6544.502600       0.003550
     6548.788500       0.003184
     6553.079900       0.002870
     6557.377000       0.002577
     6561.679800       0.002327
     6565.988200       0.002121
     6570.302200       0.001923
     6574.622000       0.001734
     6578.947400       0.001580
     6583.278500       0.001445
     6587.615300       0.001319
     6591.957800       0.001210
     6596.306100       0.001115
     6600.660100       0.001029
