  02, goes_15_imager_03.flt Release RevH plus STAR correction
Number of data points:
5201
Wavenumber (cm-1)   Filter response
     1250.000000       0.000000
     1250.100000       0.000000
     1250.200000       0.000000
     1250.300000       0.000000
     1250.400000       0.000000
     1250.500000       0.000000
     1250.600000       0.000000
     1250.700000       0.000000
     1250.800000       0.000000
     1250.900000       0.000000
     1251.000000       0.000000
     1251.100000       0.000000
     1251.200000       0.000000
     1251.300000       0.000000
     1251.400000       0.000000
     1251.500000       0.000000
     1251.600000       0.000000
     1251.700000       0.000000
     1251.800000       0.000000
     1251.900000       0.000000
     1252.000000       0.000000
     1252.100000       0.000000
     1252.200000       0.000000
     1252.300000       0.000000
     1252.400000       0.000000
     1252.500000       0.000000
     1252.600000       0.000000
     1252.700000       0.000000
     1252.800000       0.000000
     1252.900000       0.000000
     1253.000000       0.000000
     1253.100000       0.000000
     1253.200000       0.000000
     1253.300000       0.000000
     1253.400000       0.000000
     1253.500000       0.000000
     1253.600000       0.000000
     1253.700000       0.000000
     1253.800000       0.000000
     1253.900000       0.000000
     1254.000000       0.000000
     1254.100000       0.000000
     1254.200000       0.000000
     1254.300000       0.000000
     1254.400000       0.000000
     1254.500000       0.000000
     1254.600000       0.000000
     1254.700000       0.000000
     1254.800000       0.000000
     1254.900000       0.000000
     1255.000000       0.000000
     1255.100000       0.000000
     1255.200000       0.000000
     1255.300000       0.000000
     1255.400000       0.000000
     1255.500000       0.000000
     1255.600000       0.000000
     1255.700000       0.000000
     1255.800000       0.000000
     1255.900000       0.000000
     1256.000000       0.000000
     1256.100000       0.000000
     1256.200000       0.000000
     1256.300000       0.000000
     1256.400000       0.000000
     1256.500000       0.000000
     1256.600000       0.000000
     1256.700000       0.000000
     1256.800000       0.000000
     1256.900000       0.000000
     1257.000000       0.000000
     1257.100000       0.000000
     1257.200000       0.000000
     1257.300000       0.000000
     1257.400000       0.000000
     1257.500000       0.000000
     1257.600000       0.000000
     1257.700000       0.000000
     1257.800000       0.000000
     1257.900000       0.000000
     1258.000000       0.000000
     1258.100000       0.000000
     1258.200000       0.000000
     1258.300000       0.000000
     1258.400000       0.000000
     1258.500000       0.000000
     1258.600000       0.000000
     1258.700000       0.000000
     1258.800000       0.000000
     1258.900000       0.000000
     1259.000000       0.000000
     1259.100000       0.000000
     1259.200000       0.000000
     1259.300000       0.000000
     1259.400000       0.000000
     1259.500000       0.000000
     1259.600000       0.000000
     1259.700000       0.000000
     1259.800000       0.000000
     1259.900000       0.000000
     1260.000000       0.000000
     1260.100000       0.000000
     1260.200000       0.000000
     1260.300000       0.000000
     1260.400000       0.000000
     1260.500000       0.000000
     1260.600000       0.000000
     1260.700000       0.000000
     1260.800000       0.000000
     1260.900000       0.000000
     1261.000000       0.000000
     1261.100000       0.000000
     1261.200000       0.000000
     1261.300000       0.000000
     1261.400000       0.000000
     1261.500000       0.000000
     1261.600000       0.000000
     1261.700000       0.000000
     1261.800000       0.000000
     1261.900000       0.000000
     1262.000000       0.000000
     1262.100000       0.000000
     1262.200000       0.000000
     1262.300000       0.000000
     1262.400000       0.000000
     1262.500000       0.000000
     1262.600000       0.000000
     1262.700000       0.000000
     1262.800000       0.000000
     1262.900000       0.000000
     1263.000000       0.000000
     1263.100000       0.000000
     1263.200000       0.000000
     1263.300000       0.000000
     1263.400000       0.000000
     1263.500000       0.000000
     1263.600000       0.000000
     1263.700000       0.000000
     1263.800000       0.000000
     1263.900000       0.000000
     1264.000000       0.000000
     1264.100000       0.000000
     1264.200000       0.000000
     1264.300000       0.000000
     1264.400000       0.000000
     1264.500000       0.000000
     1264.600000       0.000000
     1264.700000       0.000000
     1264.800000       0.000000
     1264.900000       0.000000
     1265.000000       0.000000
     1265.100000       0.000000
     1265.200000       0.000000
     1265.300000       0.000000
     1265.400000       0.000000
     1265.500000       0.000000
     1265.600000       0.000000
     1265.700000       0.000000
     1265.800000       0.000000
     1265.900000       0.000000
     1266.000000       0.000000
     1266.100000       0.000000
     1266.200000       0.000000
     1266.300000       0.000000
     1266.400000       0.000000
     1266.500000       0.000000
     1266.600000       0.000000
     1266.700000       0.000000
     1266.800000       0.000000
     1266.900000       0.000000
     1267.000000       0.000000
     1267.100000       0.000000
     1267.200000       0.000000
     1267.300000       0.000000
     1267.400000       0.000000
     1267.500000       0.000000
     1267.600000       0.000000
     1267.700000       0.000000
     1267.800000       0.000000
     1267.900000       0.000000
     1268.000000       0.000000
     1268.100000       0.000000
     1268.200000       0.000000
     1268.300000       0.000000
     1268.400000       0.000000
     1268.500000       0.000000
     1268.600000       0.000000
     1268.700000       0.000000
     1268.800000       0.000000
     1268.900000       0.000000
     1269.000000       0.000000
     1269.100000       0.000000
     1269.200000       0.000000
     1269.300000       0.000000
     1269.400000       0.000000
     1269.500000       0.000000
     1269.600000       0.000000
     1269.700000       0.000001
     1269.800000       0.000001
     1269.900000       0.000001
     1270.000000       0.000001
     1270.100000       0.000001
     1270.200000       0.000001
     1270.300000       0.000001
     1270.400000       0.000001
     1270.500000       0.000001
     1270.600000       0.000001
     1270.700000       0.000001
     1270.800000       0.000001
     1270.900000       0.000001
     1271.000000       0.000001
     1271.100000       0.000001
     1271.200000       0.000001
     1271.300000       0.000001
     1271.400000       0.000001
     1271.500000       0.000001
     1271.600000       0.000001
     1271.700000       0.000001
     1271.800000       0.000001
     1271.900000       0.000001
     1272.000000       0.000001
     1272.100000       0.000001
     1272.200000       0.000001
     1272.300000       0.000001
     1272.400000       0.000002
     1272.500000       0.000002
     1272.600000       0.000002
     1272.700000       0.000002
     1272.800000       0.000002
     1272.900000       0.000002
     1273.000000       0.000002
     1273.100000       0.000002
     1273.200000       0.000002
     1273.300000       0.000002
     1273.400000       0.000002
     1273.500000       0.000002
     1273.600000       0.000003
     1273.700000       0.000003
     1273.800000       0.000003
     1273.900000       0.000003
     1274.000000       0.000003
     1274.100000       0.000003
     1274.200000       0.000003
     1274.300000       0.000003
     1274.400000       0.000003
     1274.500000       0.000004
     1274.600000       0.000004
     1274.700000       0.000004
     1274.800000       0.000004
     1274.900000       0.000004
     1275.000000       0.000004
     1275.100000       0.000004
     1275.200000       0.000004
     1275.300000       0.000005
     1275.400000       0.000005
     1275.500000       0.000005
     1275.600000       0.000005
     1275.700000       0.000005
     1275.800000       0.000005
     1275.900000       0.000005
     1276.000000       0.000006
     1276.100000       0.000006
     1276.200000       0.000006
     1276.300000       0.000006
     1276.400000       0.000006
     1276.500000       0.000006
     1276.600000       0.000007
     1276.700000       0.000007
     1276.800000       0.000007
     1276.900000       0.000007
     1277.000000       0.000007
     1277.100000       0.000007
     1277.200000       0.000007
     1277.300000       0.000008
     1277.400000       0.000008
     1277.500000       0.000008
     1277.600000       0.000008
     1277.700000       0.000008
     1277.800000       0.000009
     1277.900000       0.000009
     1278.000000       0.000009
     1278.100000       0.000009
     1278.200000       0.000009
     1278.300000       0.000010
     1278.400000       0.000010
     1278.500000       0.000010
     1278.600000       0.000010
     1278.700000       0.000011
     1278.800000       0.000011
     1278.900000       0.000011
     1279.000000       0.000011
     1279.100000       0.000012
     1279.200000       0.000012
     1279.300000       0.000012
     1279.400000       0.000012
     1279.500000       0.000013
     1279.600000       0.000013
     1279.700000       0.000013
     1279.800000       0.000014
     1279.900000       0.000014
     1280.000000       0.000014
     1280.100000       0.000015
     1280.200000       0.000015
     1280.300000       0.000015
     1280.400000       0.000016
     1280.500000       0.000016
     1280.600000       0.000016
     1280.700000       0.000017
     1280.800000       0.000017
     1280.900000       0.000017
     1281.000000       0.000018
     1281.100000       0.000018
     1281.200000       0.000019
     1281.300000       0.000019
     1281.400000       0.000020
     1281.500000       0.000020
     1281.600000       0.000021
     1281.700000       0.000021
     1281.800000       0.000022
     1281.900000       0.000022
     1282.000000       0.000023
     1282.100000       0.000023
     1282.200000       0.000024
     1282.300000       0.000025
     1282.400000       0.000025
     1282.500000       0.000026
     1282.600000       0.000026
     1282.700000       0.000027
     1282.800000       0.000027
     1282.900000       0.000028
     1283.000000       0.000028
     1283.100000       0.000029
     1283.200000       0.000029
     1283.300000       0.000030
     1283.400000       0.000031
     1283.500000       0.000031
     1283.600000       0.000032
     1283.700000       0.000032
     1283.800000       0.000033
     1283.900000       0.000034
     1284.000000       0.000034
     1284.100000       0.000035
     1284.200000       0.000036
     1284.300000       0.000036
     1284.400000       0.000037
     1284.500000       0.000037
     1284.600000       0.000038
     1284.700000       0.000039
     1284.800000       0.000039
     1284.900000       0.000040
     1285.000000       0.000040
     1285.100000       0.000041
     1285.200000       0.000042
     1285.300000       0.000042
     1285.400000       0.000043
     1285.500000       0.000044
     1285.600000       0.000044
     1285.700000       0.000045
     1285.800000       0.000046
     1285.900000       0.000047
     1286.000000       0.000048
     1286.100000       0.000049
     1286.200000       0.000050
     1286.300000       0.000051
     1286.400000       0.000052
     1286.500000       0.000053
     1286.600000       0.000054
     1286.700000       0.000055
     1286.800000       0.000057
     1286.900000       0.000058
     1287.000000       0.000059
     1287.100000       0.000061
     1287.200000       0.000062
     1287.300000       0.000064
     1287.400000       0.000066
     1287.500000       0.000067
     1287.600000       0.000069
     1287.700000       0.000071
     1287.800000       0.000073
     1287.900000       0.000074
     1288.000000       0.000076
     1288.100000       0.000078
     1288.200000       0.000080
     1288.300000       0.000082
     1288.400000       0.000084
     1288.500000       0.000086
     1288.600000       0.000088
     1288.700000       0.000090
     1288.800000       0.000093
     1288.900000       0.000095
     1289.000000       0.000097
     1289.100000       0.000100
     1289.200000       0.000102
     1289.300000       0.000105
     1289.400000       0.000108
     1289.500000       0.000110
     1289.600000       0.000113
     1289.700000       0.000116
     1289.800000       0.000119
     1289.900000       0.000122
     1290.000000       0.000126
     1290.100000       0.000129
     1290.200000       0.000132
     1290.300000       0.000135
     1290.400000       0.000139
     1290.500000       0.000142
     1290.600000       0.000146
     1290.700000       0.000149
     1290.800000       0.000153
     1290.900000       0.000157
     1291.000000       0.000160
     1291.100000       0.000164
     1291.200000       0.000168
     1291.300000       0.000172
     1291.400000       0.000175
     1291.500000       0.000179
     1291.600000       0.000183
     1291.700000       0.000187
     1291.800000       0.000191
     1291.900000       0.000195
     1292.000000       0.000199
     1292.100000       0.000204
     1292.200000       0.000208
     1292.300000       0.000212
     1292.400000       0.000216
     1292.500000       0.000220
     1292.600000       0.000225
     1292.700000       0.000229
     1292.800000       0.000233
     1292.900000       0.000237
     1293.000000       0.000241
     1293.100000       0.000244
     1293.200000       0.000248
     1293.300000       0.000252
     1293.400000       0.000255
     1293.500000       0.000259
     1293.600000       0.000262
     1293.700000       0.000266
     1293.800000       0.000269
     1293.900000       0.000273
     1294.000000       0.000276
     1294.100000       0.000280
     1294.200000       0.000284
     1294.300000       0.000287
     1294.400000       0.000291
     1294.500000       0.000295
     1294.600000       0.000299
     1294.700000       0.000303
     1294.800000       0.000308
     1294.900000       0.000312
     1295.000000       0.000317
     1295.100000       0.000321
     1295.200000       0.000326
     1295.300000       0.000331
     1295.400000       0.000336
     1295.500000       0.000342
     1295.600000       0.000347
     1295.700000       0.000353
     1295.800000       0.000358
     1295.900000       0.000364
     1296.000000       0.000370
     1296.100000       0.000376
     1296.200000       0.000382
     1296.300000       0.000388
     1296.400000       0.000395
     1296.500000       0.000401
     1296.600000       0.000408
     1296.700000       0.000414
     1296.800000       0.000421
     1296.900000       0.000428
     1297.000000       0.000434
     1297.100000       0.000441
     1297.200000       0.000448
     1297.300000       0.000455
     1297.400000       0.000462
     1297.500000       0.000469
     1297.600000       0.000476
     1297.700000       0.000482
     1297.800000       0.000489
     1297.900000       0.000496
     1298.000000       0.000503
     1298.100000       0.000510
     1298.200000       0.000517
     1298.300000       0.000524
     1298.400000       0.000531
     1298.500000       0.000538
     1298.600000       0.000545
     1298.700000       0.000552
     1298.800000       0.000559
     1298.900000       0.000566
     1299.000000       0.000573
     1299.100000       0.000580
     1299.200000       0.000587
     1299.300000       0.000594
     1299.400000       0.000602
     1299.500000       0.000609
     1299.600000       0.000617
     1299.700000       0.000625
     1299.800000       0.000632
     1299.900000       0.000640
     1300.000000       0.000648
     1300.100000       0.000656
     1300.200000       0.000664
     1300.300000       0.000673
     1300.400000       0.000681
     1300.500000       0.000690
     1300.600000       0.000698
     1300.700000       0.000707
     1300.800000       0.000716
     1300.900000       0.000725
     1301.000000       0.000734
     1301.100000       0.000742
     1301.200000       0.000751
     1301.300000       0.000760
     1301.400000       0.000769
     1301.500000       0.000778
     1301.600000       0.000787
     1301.700000       0.000796
     1301.800000       0.000805
     1301.900000       0.000814
     1302.000000       0.000822
     1302.100000       0.000831
     1302.200000       0.000840
     1302.300000       0.000849
     1302.400000       0.000858
     1302.500000       0.000867
     1302.600000       0.000876
     1302.700000       0.000885
     1302.800000       0.000893
     1302.900000       0.000902
     1303.000000       0.000911
     1303.100000       0.000920
     1303.200000       0.000929
     1303.300000       0.000938
     1303.400000       0.000948
     1303.500000       0.000957
     1303.600000       0.000966
     1303.700000       0.000976
     1303.800000       0.000985
     1303.900000       0.000995
     1304.000000       0.001005
     1304.100000       0.001015
     1304.200000       0.001025
     1304.300000       0.001036
     1304.400000       0.001046
     1304.500000       0.001057
     1304.600000       0.001068
     1304.700000       0.001079
     1304.800000       0.001090
     1304.900000       0.001102
     1305.000000       0.001114
     1305.100000       0.001126
     1305.200000       0.001138
     1305.300000       0.001150
     1305.400000       0.001163
     1305.500000       0.001176
     1305.600000       0.001189
     1305.700000       0.001202
     1305.800000       0.001215
     1305.900000       0.001229
     1306.000000       0.001242
     1306.100000       0.001256
     1306.200000       0.001270
     1306.300000       0.001284
     1306.400000       0.001299
     1306.500000       0.001313
     1306.600000       0.001327
     1306.700000       0.001342
     1306.800000       0.001357
     1306.900000       0.001372
     1307.000000       0.001387
     1307.100000       0.001401
     1307.200000       0.001416
     1307.300000       0.001431
     1307.400000       0.001446
     1307.500000       0.001461
     1307.600000       0.001476
     1307.700000       0.001490
     1307.800000       0.001505
     1307.900000       0.001520
     1308.000000       0.001534
     1308.100000       0.001549
     1308.200000       0.001563
     1308.300000       0.001578
     1308.400000       0.001592
     1308.500000       0.001607
     1308.600000       0.001622
     1308.700000       0.001637
     1308.800000       0.001652
     1308.900000       0.001667
     1309.000000       0.001683
     1309.100000       0.001698
     1309.200000       0.001714
     1309.300000       0.001730
     1309.400000       0.001746
     1309.500000       0.001761
     1309.600000       0.001777
     1309.700000       0.001794
     1309.800000       0.001810
     1309.900000       0.001826
     1310.000000       0.001842
     1310.100000       0.001859
     1310.200000       0.001875
     1310.300000       0.001891
     1310.400000       0.001908
     1310.500000       0.001925
     1310.600000       0.001942
     1310.700000       0.001958
     1310.800000       0.001975
     1310.900000       0.001993
     1311.000000       0.002010
     1311.100000       0.002027
     1311.200000       0.002045
     1311.300000       0.002062
     1311.400000       0.002080
     1311.500000       0.002097
     1311.600000       0.002115
     1311.700000       0.002133
     1311.800000       0.002151
     1311.900000       0.002168
     1312.000000       0.002186
     1312.100000       0.002204
     1312.200000       0.002222
     1312.300000       0.002240
     1312.400000       0.002259
     1312.500000       0.002277
     1312.600000       0.002295
     1312.700000       0.002314
     1312.800000       0.002332
     1312.900000       0.002351
     1313.000000       0.002370
     1313.100000       0.002389
     1313.200000       0.002408
     1313.300000       0.002428
     1313.400000       0.002448
     1313.500000       0.002468
     1313.600000       0.002489
     1313.700000       0.002510
     1313.800000       0.002531
     1313.900000       0.002553
     1314.000000       0.002576
     1314.100000       0.002599
     1314.200000       0.002623
     1314.300000       0.002647
     1314.400000       0.002671
     1314.500000       0.002696
     1314.600000       0.002721
     1314.700000       0.002747
     1314.800000       0.002772
     1314.900000       0.002798
     1315.000000       0.002824
     1315.100000       0.002851
     1315.200000       0.002877
     1315.300000       0.002903
     1315.400000       0.002930
     1315.500000       0.002957
     1315.600000       0.002984
     1315.700000       0.003011
     1315.800000       0.003039
     1315.900000       0.003066
     1316.000000       0.003094
     1316.100000       0.003122
     1316.200000       0.003150
     1316.300000       0.003179
     1316.400000       0.003207
     1316.500000       0.003236
     1316.600000       0.003266
     1316.700000       0.003295
     1316.800000       0.003325
     1316.900000       0.003354
     1317.000000       0.003384
     1317.100000       0.003415
     1317.200000       0.003445
     1317.300000       0.003475
     1317.400000       0.003506
     1317.500000       0.003537
     1317.600000       0.003568
     1317.700000       0.003599
     1317.800000       0.003631
     1317.900000       0.003662
     1318.000000       0.003694
     1318.100000       0.003726
     1318.200000       0.003758
     1318.300000       0.003790
     1318.400000       0.003822
     1318.500000       0.003854
     1318.600000       0.003887
     1318.700000       0.003920
     1318.800000       0.003953
     1318.900000       0.003987
     1319.000000       0.004021
     1319.100000       0.004055
     1319.200000       0.004090
     1319.300000       0.004125
     1319.400000       0.004161
     1319.500000       0.004197
     1319.600000       0.004233
     1319.700000       0.004270
     1319.800000       0.004307
     1319.900000       0.004344
     1320.000000       0.004381
     1320.100000       0.004418
     1320.200000       0.004455
     1320.300000       0.004492
     1320.400000       0.004529
     1320.500000       0.004567
     1320.600000       0.004604
     1320.700000       0.004641
     1320.800000       0.004678
     1320.900000       0.004716
     1321.000000       0.004753
     1321.100000       0.004791
     1321.200000       0.004829
     1321.300000       0.004868
     1321.400000       0.004906
     1321.500000       0.004945
     1321.600000       0.004984
     1321.700000       0.005024
     1321.800000       0.005063
     1321.900000       0.005103
     1322.000000       0.005144
     1322.100000       0.005184
     1322.200000       0.005225
     1322.300000       0.005266
     1322.400000       0.005307
     1322.500000       0.005349
     1322.600000       0.005391
     1322.700000       0.005434
     1322.800000       0.005476
     1322.900000       0.005520
     1323.000000       0.005563
     1323.100000       0.005607
     1323.200000       0.005651
     1323.300000       0.005696
     1323.400000       0.005741
     1323.500000       0.005787
     1323.600000       0.005834
     1323.700000       0.005880
     1323.800000       0.005928
     1323.900000       0.005976
     1324.000000       0.006025
     1324.100000       0.006074
     1324.200000       0.006124
     1324.300000       0.006174
     1324.400000       0.006226
     1324.500000       0.006278
     1324.600000       0.006331
     1324.700000       0.006384
     1324.800000       0.006439
     1324.900000       0.006494
     1325.000000       0.006550
     1325.100000       0.006606
     1325.200000       0.006663
     1325.300000       0.006721
     1325.400000       0.006779
     1325.500000       0.006838
     1325.600000       0.006897
     1325.700000       0.006957
     1325.800000       0.007018
     1325.900000       0.007079
     1326.000000       0.007142
     1326.100000       0.007204
     1326.200000       0.007268
     1326.300000       0.007332
     1326.400000       0.007398
     1326.500000       0.007464
     1326.600000       0.007531
     1326.700000       0.007599
     1326.800000       0.007668
     1326.900000       0.007738
     1327.000000       0.007809
     1327.100000       0.007881
     1327.200000       0.007954
     1327.300000       0.008027
     1327.400000       0.008102
     1327.500000       0.008177
     1327.600000       0.008254
     1327.700000       0.008331
     1327.800000       0.008409
     1327.900000       0.008488
     1328.000000       0.008568
     1328.100000       0.008648
     1328.200000       0.008730
     1328.300000       0.008812
     1328.400000       0.008895
     1328.500000       0.008979
     1328.600000       0.009063
     1328.700000       0.009149
     1328.800000       0.009235
     1328.900000       0.009322
     1329.000000       0.009410
     1329.100000       0.009499
     1329.200000       0.009589
     1329.300000       0.009679
     1329.400000       0.009770
     1329.500000       0.009862
     1329.600000       0.009955
     1329.700000       0.010049
     1329.800000       0.010144
     1329.900000       0.010240
     1330.000000       0.010336
     1330.100000       0.010434
     1330.200000       0.010532
     1330.300000       0.010631
     1330.400000       0.010731
     1330.500000       0.010832
     1330.600000       0.010934
     1330.700000       0.011036
     1330.800000       0.011140
     1330.900000       0.011244
     1331.000000       0.011349
     1331.100000       0.011455
     1331.200000       0.011562
     1331.300000       0.011670
     1331.400000       0.011778
     1331.500000       0.011888
     1331.600000       0.011998
     1331.700000       0.012109
     1331.800000       0.012222
     1331.900000       0.012335
     1332.000000       0.012449
     1332.100000       0.012565
     1332.200000       0.012681
     1332.300000       0.012799
     1332.400000       0.012918
     1332.500000       0.013038
     1332.600000       0.013160
     1332.700000       0.013283
     1332.800000       0.013407
     1332.900000       0.013533
     1333.000000       0.013660
     1333.100000       0.013789
     1333.200000       0.013920
     1333.300000       0.014052
     1333.400000       0.014186
     1333.500000       0.014321
     1333.600000       0.014458
     1333.700000       0.014597
     1333.800000       0.014738
     1333.900000       0.014880
     1334.000000       0.015025
     1334.100000       0.015171
     1334.200000       0.015319
     1334.300000       0.015469
     1334.400000       0.015621
     1334.500000       0.015774
     1334.600000       0.015929
     1334.700000       0.016086
     1334.800000       0.016245
     1334.900000       0.016405
     1335.000000       0.016567
     1335.100000       0.016731
     1335.200000       0.016896
     1335.300000       0.017064
     1335.400000       0.017233
     1335.500000       0.017403
     1335.600000       0.017576
     1335.700000       0.017749
     1335.800000       0.017925
     1335.900000       0.018102
     1336.000000       0.018280
     1336.100000       0.018460
     1336.200000       0.018642
     1336.300000       0.018825
     1336.400000       0.019010
     1336.500000       0.019197
     1336.600000       0.019385
     1336.700000       0.019575
     1336.800000       0.019767
     1336.900000       0.019960
     1337.000000       0.020155
     1337.100000       0.020353
     1337.200000       0.020552
     1337.300000       0.020753
     1337.400000       0.020956
     1337.500000       0.021160
     1337.600000       0.021366
     1337.700000       0.021573
     1337.800000       0.021782
     1337.900000       0.021992
     1338.000000       0.022204
     1338.100000       0.022417
     1338.200000       0.022631
     1338.300000       0.022847
     1338.400000       0.023064
     1338.500000       0.023283
     1338.600000       0.023504
     1338.700000       0.023726
     1338.800000       0.023951
     1338.900000       0.024178
     1339.000000       0.024407
     1339.100000       0.024639
     1339.200000       0.024872
     1339.300000       0.025109
     1339.400000       0.025348
     1339.500000       0.025588
     1339.600000       0.025831
     1339.700000       0.026075
     1339.800000       0.026322
     1339.900000       0.026570
     1340.000000       0.026820
     1340.100000       0.027071
     1340.200000       0.027325
     1340.300000       0.027581
     1340.400000       0.027839
     1340.500000       0.028099
     1340.600000       0.028362
     1340.700000       0.028628
     1340.800000       0.028898
     1340.900000       0.029171
     1341.000000       0.029449
     1341.100000       0.029730
     1341.200000       0.030015
     1341.300000       0.030306
     1341.400000       0.030599
     1341.500000       0.030898
     1341.600000       0.031200
     1341.700000       0.031507
     1341.800000       0.031818
     1341.900000       0.032134
     1342.000000       0.032454
     1342.100000       0.032780
     1342.200000       0.033110
     1342.300000       0.033445
     1342.400000       0.033784
     1342.500000       0.034128
     1342.600000       0.034477
     1342.700000       0.034831
     1342.800000       0.035190
     1342.900000       0.035554
     1343.000000       0.035924
     1343.100000       0.036298
     1343.200000       0.036678
     1343.300000       0.037063
     1343.400000       0.037453
     1343.500000       0.037847
     1343.600000       0.038246
     1343.700000       0.038650
     1343.800000       0.039059
     1343.900000       0.039472
     1344.000000       0.039890
     1344.100000       0.040313
     1344.200000       0.040742
     1344.300000       0.041176
     1344.400000       0.041614
     1344.500000       0.042057
     1344.600000       0.042506
     1344.700000       0.042961
     1344.800000       0.043421
     1344.900000       0.043887
     1345.000000       0.044359
     1345.100000       0.044836
     1345.200000       0.045319
     1345.300000       0.045806
     1345.400000       0.046296
     1345.500000       0.046790
     1345.600000       0.047287
     1345.700000       0.047786
     1345.800000       0.048287
     1345.900000       0.048789
     1346.000000       0.049292
     1346.100000       0.049797
     1346.200000       0.050303
     1346.300000       0.050813
     1346.400000       0.051325
     1346.500000       0.051840
     1346.600000       0.052359
     1346.700000       0.052882
     1346.800000       0.053411
     1346.900000       0.053945
     1347.000000       0.054484
     1347.100000       0.055029
     1347.200000       0.055579
     1347.300000       0.056136
     1347.400000       0.056697
     1347.500000       0.057263
     1347.600000       0.057834
     1347.700000       0.058410
     1347.800000       0.058993
     1347.900000       0.059580
     1348.000000       0.060172
     1348.100000       0.060771
     1348.200000       0.061376
     1348.300000       0.061988
     1348.400000       0.062607
     1348.500000       0.063234
     1348.600000       0.063870
     1348.700000       0.064515
     1348.800000       0.065170
     1348.900000       0.065836
     1349.000000       0.066513
     1349.100000       0.067201
     1349.200000       0.067900
     1349.300000       0.068612
     1349.400000       0.069335
     1349.500000       0.070069
     1349.600000       0.070817
     1349.700000       0.071576
     1349.800000       0.072351
     1349.900000       0.073138
     1350.000000       0.073939
     1350.100000       0.074754
     1350.200000       0.075583
     1350.300000       0.076428
     1350.400000       0.077286
     1350.500000       0.078159
     1350.600000       0.079047
     1350.700000       0.079952
     1350.800000       0.080874
     1350.900000       0.081812
     1351.000000       0.082766
     1351.100000       0.083736
     1351.200000       0.084721
     1351.300000       0.085721
     1351.400000       0.086733
     1351.500000       0.087757
     1351.600000       0.088795
     1351.700000       0.089844
     1351.800000       0.090906
     1351.900000       0.091978
     1352.000000       0.093061
     1352.100000       0.094154
     1352.200000       0.095259
     1352.300000       0.096375
     1352.400000       0.097500
     1352.500000       0.098635
     1352.600000       0.099781
     1352.700000       0.100938
     1352.800000       0.102106
     1352.900000       0.103283
     1353.000000       0.104469
     1353.100000       0.105662
     1353.200000       0.106861
     1353.300000       0.108066
     1353.400000       0.109275
     1353.500000       0.110487
     1353.600000       0.111701
     1353.700000       0.112917
     1353.800000       0.114136
     1353.900000       0.115355
     1354.000000       0.116577
     1354.100000       0.117801
     1354.200000       0.119028
     1354.300000       0.120261
     1354.400000       0.121495
     1354.500000       0.122734
     1354.600000       0.123977
     1354.700000       0.125225
     1354.800000       0.126479
     1354.900000       0.127736
     1355.000000       0.128996
     1355.100000       0.130260
     1355.200000       0.131528
     1355.300000       0.132801
     1355.400000       0.134076
     1355.500000       0.135354
     1355.600000       0.136635
     1355.700000       0.137920
     1355.800000       0.139212
     1355.900000       0.140508
     1356.000000       0.141809
     1356.100000       0.143118
     1356.200000       0.144434
     1356.300000       0.145760
     1356.400000       0.147093
     1356.500000       0.148437
     1356.600000       0.149789
     1356.700000       0.151151
     1356.800000       0.152524
     1356.900000       0.153904
     1357.000000       0.155293
     1357.100000       0.156691
     1357.200000       0.158097
     1357.300000       0.159513
     1357.400000       0.160937
     1357.500000       0.162369
     1357.600000       0.163810
     1357.700000       0.165259
     1357.800000       0.166719
     1357.900000       0.168185
     1358.000000       0.169660
     1358.100000       0.171145
     1358.200000       0.172640
     1358.300000       0.174147
     1358.400000       0.175665
     1358.500000       0.177194
     1358.600000       0.178734
     1358.700000       0.180285
     1358.800000       0.181849
     1358.900000       0.183422
     1359.000000       0.185005
     1359.100000       0.186599
     1359.200000       0.188205
     1359.300000       0.189824
     1359.400000       0.191453
     1359.500000       0.193094
     1359.600000       0.194746
     1359.700000       0.196410
     1359.800000       0.198088
     1359.900000       0.199776
     1360.000000       0.201477
     1360.100000       0.203189
     1360.200000       0.204914
     1360.300000       0.206653
     1360.400000       0.208401
     1360.500000       0.210161
     1360.600000       0.211933
     1360.700000       0.213717
     1360.800000       0.215513
     1360.900000       0.217319
     1361.000000       0.219137
     1361.100000       0.220966
     1361.200000       0.222808
     1361.300000       0.224664
     1361.400000       0.226531
     1361.500000       0.228411
     1361.600000       0.230304
     1361.700000       0.232210
     1361.800000       0.234132
     1361.900000       0.236068
     1362.000000       0.238018
     1362.100000       0.239985
     1362.200000       0.241969
     1362.300000       0.243972
     1362.400000       0.245988
     1362.500000       0.248018
     1362.600000       0.250063
     1362.700000       0.252123
     1362.800000       0.254198
     1362.900000       0.256284
     1363.000000       0.258384
     1363.100000       0.260497
     1363.200000       0.262624
     1363.300000       0.264768
     1363.400000       0.266924
     1363.500000       0.269096
     1363.600000       0.271284
     1363.700000       0.273491
     1363.800000       0.275720
     1363.900000       0.277967
     1364.000000       0.280237
     1364.100000       0.282530
     1364.200000       0.284848
     1364.300000       0.287193
     1364.400000       0.289557
     1364.500000       0.291943
     1364.600000       0.294350
     1364.700000       0.296779
     1364.800000       0.299231
     1364.900000       0.301701
     1365.000000       0.304192
     1365.100000       0.306705
     1365.200000       0.309239
     1365.300000       0.311798
     1365.400000       0.314374
     1365.500000       0.316971
     1365.600000       0.319590
     1365.700000       0.322230
     1365.800000       0.324896
     1365.900000       0.327581
     1366.000000       0.330289
     1366.100000       0.333020
     1366.200000       0.335776
     1366.300000       0.338557
     1366.400000       0.341358
     1366.500000       0.344182
     1366.600000       0.347028
     1366.700000       0.349896
     1366.800000       0.352791
     1366.900000       0.355705
     1367.000000       0.358643
     1367.100000       0.361605
     1367.200000       0.364591
     1367.300000       0.367603
     1367.400000       0.370635
     1367.500000       0.373687
     1367.600000       0.376759
     1367.700000       0.379851
     1367.800000       0.382967
     1367.900000       0.386097
     1368.000000       0.389246
     1368.100000       0.392414
     1368.200000       0.395601
     1368.300000       0.398809
     1368.400000       0.402031
     1368.500000       0.405269
     1368.600000       0.408521
     1368.700000       0.411789
     1368.800000       0.415073
     1368.900000       0.418366
     1369.000000       0.421672
     1369.100000       0.424991
     1369.200000       0.428321
     1369.300000       0.431666
     1369.400000       0.435019
     1369.500000       0.438383
     1369.600000       0.441759
     1369.700000       0.445145
     1369.800000       0.448547
     1369.900000       0.451956
     1370.000000       0.455377
     1370.100000       0.458810
     1370.200000       0.462256
     1370.300000       0.465720
     1370.400000       0.469192
     1370.500000       0.472677
     1370.600000       0.476174
     1370.700000       0.479681
     1370.800000       0.483203
     1370.900000       0.486729
     1371.000000       0.490265
     1371.100000       0.493808
     1371.200000       0.497359
     1371.300000       0.500921
     1371.400000       0.504484
     1371.500000       0.508054
     1371.600000       0.511630
     1371.700000       0.515214
     1371.800000       0.518810
     1371.900000       0.522408
     1372.000000       0.526015
     1372.100000       0.529628
     1372.200000       0.533250
     1372.300000       0.536883
     1372.400000       0.540519
     1372.500000       0.544161
     1372.600000       0.547810
     1372.700000       0.551464
     1372.800000       0.555126
     1372.900000       0.558786
     1373.000000       0.562449
     1373.100000       0.566113
     1373.200000       0.569778
     1373.300000       0.573447
     1373.400000       0.577111
     1373.500000       0.580773
     1373.600000       0.584434
     1373.700000       0.588093
     1373.800000       0.591756
     1373.900000       0.595412
     1374.000000       0.599067
     1374.100000       0.602722
     1374.200000       0.606377
     1374.300000       0.610037
     1374.400000       0.613693
     1374.500000       0.617350
     1374.600000       0.621008
     1374.700000       0.624667
     1374.800000       0.628332
     1374.900000       0.631993
     1375.000000       0.635655
     1375.100000       0.639317
     1375.200000       0.642980
     1375.300000       0.646647
     1375.400000       0.650310
     1375.500000       0.653973
     1375.600000       0.657636
     1375.700000       0.661298
     1375.800000       0.664966
     1375.900000       0.668628
     1376.000000       0.672288
     1376.100000       0.675946
     1376.200000       0.679599
     1376.300000       0.683250
     1376.400000       0.686890
     1376.500000       0.690520
     1376.600000       0.694139
     1376.700000       0.697746
     1376.800000       0.701342
     1376.900000       0.704918
     1377.000000       0.708476
     1377.100000       0.712015
     1377.200000       0.715533
     1377.300000       0.719031
     1377.400000       0.722500
     1377.500000       0.725940
     1377.600000       0.729350
     1377.700000       0.732728
     1377.800000       0.736077
     1377.900000       0.739389
     1378.000000       0.742670
     1378.100000       0.745921
     1378.200000       0.749141
     1378.300000       0.752337
     1378.400000       0.755499
     1378.500000       0.758633
     1378.600000       0.761739
     1378.700000       0.764817
     1378.800000       0.767871
     1378.900000       0.770896
     1379.000000       0.773897
     1379.100000       0.776875
     1379.200000       0.779830
     1379.300000       0.782767
     1379.400000       0.785680
     1379.500000       0.788572
     1379.600000       0.791444
     1379.700000       0.794296
     1379.800000       0.797133
     1379.900000       0.799949
     1380.000000       0.802747
     1380.100000       0.805531
     1380.200000       0.808299
     1380.300000       0.811054
     1380.400000       0.813790
     1380.500000       0.816510
     1380.600000       0.819214
     1380.700000       0.821902
     1380.800000       0.824576
     1380.900000       0.827230
     1381.000000       0.829867
     1381.100000       0.832487
     1381.200000       0.835090
     1381.300000       0.837680
     1381.400000       0.840249
     1381.500000       0.842799
     1381.600000       0.845332
     1381.700000       0.847843
     1381.800000       0.850338
     1381.900000       0.852810
     1382.000000       0.855261
     1382.100000       0.857693
     1382.200000       0.860105
     1382.300000       0.862499
     1382.400000       0.864870
     1382.500000       0.867219
     1382.600000       0.869547
     1382.700000       0.871850
     1382.800000       0.874132
     1382.900000       0.876387
     1383.000000       0.878613
     1383.100000       0.880812
     1383.200000       0.882981
     1383.300000       0.885119
     1383.400000       0.887221
     1383.500000       0.889286
     1383.600000       0.891313
     1383.700000       0.893297
     1383.800000       0.895240
     1383.900000       0.897134
     1384.000000       0.898984
     1384.100000       0.900792
     1384.200000       0.902559
     1384.300000       0.904288
     1384.400000       0.905978
     1384.500000       0.907629
     1384.600000       0.909245
     1384.700000       0.910824
     1384.800000       0.912368
     1384.900000       0.913876
     1385.000000       0.915349
     1385.100000       0.916790
     1385.200000       0.918199
     1385.300000       0.919579
     1385.400000       0.920929
     1385.500000       0.922250
     1385.600000       0.923543
     1385.700000       0.924808
     1385.800000       0.926047
     1385.900000       0.927257
     1386.000000       0.928437
     1386.100000       0.929593
     1386.200000       0.930723
     1386.300000       0.931829
     1386.400000       0.932910
     1386.500000       0.933968
     1386.600000       0.935002
     1386.700000       0.936014
     1386.800000       0.937003
     1386.900000       0.937968
     1387.000000       0.938909
     1387.100000       0.939829
     1387.200000       0.940727
     1387.300000       0.941607
     1387.400000       0.942467
     1387.500000       0.943309
     1387.600000       0.944133
     1387.700000       0.944941
     1387.800000       0.945733
     1387.900000       0.946507
     1388.000000       0.947263
     1388.100000       0.948001
     1388.200000       0.948720
     1388.300000       0.949424
     1388.400000       0.950109
     1388.500000       0.950778
     1388.600000       0.951430
     1388.700000       0.952064
     1388.800000       0.952681
     1388.900000       0.953279
     1389.000000       0.953861
     1389.100000       0.954424
     1389.200000       0.954968
     1389.300000       0.955495
     1389.400000       0.956001
     1389.500000       0.956488
     1389.600000       0.956956
     1389.700000       0.957401
     1389.800000       0.957825
     1389.900000       0.958225
     1390.000000       0.958601
     1390.100000       0.958952
     1390.200000       0.959278
     1390.300000       0.959580
     1390.400000       0.959856
     1390.500000       0.960107
     1390.600000       0.960333
     1390.700000       0.960534
     1390.800000       0.960708
     1390.900000       0.960855
     1391.000000       0.960974
     1391.100000       0.961064
     1391.200000       0.961123
     1391.300000       0.961153
     1391.400000       0.961151
     1391.500000       0.961118
     1391.600000       0.961052
     1391.700000       0.960952
     1391.800000       0.960816
     1391.900000       0.960646
     1392.000000       0.960442
     1392.100000       0.960207
     1392.200000       0.959942
     1392.300000       0.959648
     1392.400000       0.959330
     1392.500000       0.958990
     1392.600000       0.958629
     1392.700000       0.958249
     1392.800000       0.957854
     1392.900000       0.957443
     1393.000000       0.957022
     1393.100000       0.956592
     1393.200000       0.956156
     1393.300000       0.955714
     1393.400000       0.955272
     1393.500000       0.954831
     1393.600000       0.954393
     1393.700000       0.953963
     1393.800000       0.953541
     1393.900000       0.953127
     1394.000000       0.952722
     1394.100000       0.952324
     1394.200000       0.951929
     1394.300000       0.951538
     1394.400000       0.951150
     1394.500000       0.950763
     1394.600000       0.950378
     1394.700000       0.949993
     1394.800000       0.949607
     1394.900000       0.949219
     1395.000000       0.948828
     1395.100000       0.948434
     1395.200000       0.948034
     1395.300000       0.947627
     1395.400000       0.947213
     1395.500000       0.946791
     1395.600000       0.946359
     1395.700000       0.945917
     1395.800000       0.945462
     1395.900000       0.944996
     1396.000000       0.944518
     1396.100000       0.944030
     1396.200000       0.943532
     1396.300000       0.943023
     1396.400000       0.942506
     1396.500000       0.941980
     1396.600000       0.941448
     1396.700000       0.940908
     1396.800000       0.940361
     1396.900000       0.939809
     1397.000000       0.939250
     1397.100000       0.938687
     1397.200000       0.938116
     1397.300000       0.937540
     1397.400000       0.936959
     1397.500000       0.936371
     1397.600000       0.935779
     1397.700000       0.935181
     1397.800000       0.934576
     1397.900000       0.933967
     1398.000000       0.933355
     1398.100000       0.932740
     1398.200000       0.932122
     1398.300000       0.931502
     1398.400000       0.930883
     1398.500000       0.930265
     1398.600000       0.929647
     1398.700000       0.929032
     1398.800000       0.928420
     1398.900000       0.927811
     1399.000000       0.927207
     1399.100000       0.926608
     1399.200000       0.926016
     1399.300000       0.925429
     1399.400000       0.924851
     1399.500000       0.924281
     1399.600000       0.923722
     1399.700000       0.923174
     1399.800000       0.922636
     1399.900000       0.922113
     1400.000000       0.921599
     1400.100000       0.921097
     1400.200000       0.920605
     1400.300000       0.920121
     1400.400000       0.919646
     1400.500000       0.919179
     1400.600000       0.918719
     1400.700000       0.918264
     1400.800000       0.917814
     1400.900000       0.917369
     1401.000000       0.916927
     1401.100000       0.916487
     1401.200000       0.916048
     1401.300000       0.915609
     1401.400000       0.915170
     1401.500000       0.914730
     1401.600000       0.914287
     1401.700000       0.913841
     1401.800000       0.913391
     1401.900000       0.912938
     1402.000000       0.912481
     1402.100000       0.912022
     1402.200000       0.911561
     1402.300000       0.911097
     1402.400000       0.910633
     1402.500000       0.910169
     1402.600000       0.909706
     1402.700000       0.909243
     1402.800000       0.908781
     1402.900000       0.908321
     1403.000000       0.907863
     1403.100000       0.907407
     1403.200000       0.906953
     1403.300000       0.906502
     1403.400000       0.906054
     1403.500000       0.905609
     1403.600000       0.905169
     1403.700000       0.904733
     1403.800000       0.904301
     1403.900000       0.903874
     1404.000000       0.903451
     1404.100000       0.903034
     1404.200000       0.902621
     1404.300000       0.902213
     1404.400000       0.901811
     1404.500000       0.901415
     1404.600000       0.901025
     1404.700000       0.900642
     1404.800000       0.900264
     1404.900000       0.899895
     1405.000000       0.899533
     1405.100000       0.899178
     1405.200000       0.898832
     1405.300000       0.898493
     1405.400000       0.898164
     1405.500000       0.897844
     1405.600000       0.897535
     1405.700000       0.897237
     1405.800000       0.896950
     1405.900000       0.896674
     1406.000000       0.896409
     1406.100000       0.896153
     1406.200000       0.895907
     1406.300000       0.895667
     1406.400000       0.895435
     1406.500000       0.895210
     1406.600000       0.894992
     1406.700000       0.894779
     1406.800000       0.894572
     1406.900000       0.894369
     1407.000000       0.894170
     1407.100000       0.893973
     1407.200000       0.893778
     1407.300000       0.893584
     1407.400000       0.893390
     1407.500000       0.893196
     1407.600000       0.893001
     1407.700000       0.892805
     1407.800000       0.892605
     1407.900000       0.892404
     1408.000000       0.892201
     1408.100000       0.891998
     1408.200000       0.891794
     1408.300000       0.891592
     1408.400000       0.891391
     1408.500000       0.891193
     1408.600000       0.890999
     1408.700000       0.890810
     1408.800000       0.890627
     1408.900000       0.890450
     1409.000000       0.890280
     1409.100000       0.890118
     1409.200000       0.889964
     1409.300000       0.889819
     1409.400000       0.889683
     1409.500000       0.889558
     1409.600000       0.889444
     1409.700000       0.889342
     1409.800000       0.889252
     1409.900000       0.889175
     1410.000000       0.889110
     1410.100000       0.889055
     1410.200000       0.889011
     1410.300000       0.888977
     1410.400000       0.888952
     1410.500000       0.888935
     1410.600000       0.888926
     1410.700000       0.888923
     1410.800000       0.888928
     1410.900000       0.888939
     1411.000000       0.888956
     1411.100000       0.888979
     1411.200000       0.889006
     1411.300000       0.889039
     1411.400000       0.889075
     1411.500000       0.889114
     1411.600000       0.889156
     1411.700000       0.889201
     1411.800000       0.889248
     1411.900000       0.889298
     1412.000000       0.889350
     1412.100000       0.889404
     1412.200000       0.889459
     1412.300000       0.889517
     1412.400000       0.889578
     1412.500000       0.889641
     1412.600000       0.889706
     1412.700000       0.889774
     1412.800000       0.889845
     1412.900000       0.889919
     1413.000000       0.889997
     1413.100000       0.890078
     1413.200000       0.890164
     1413.300000       0.890253
     1413.400000       0.890347
     1413.500000       0.890446
     1413.600000       0.890549
     1413.700000       0.890658
     1413.800000       0.890773
     1413.900000       0.890892
     1414.000000       0.891018
     1414.100000       0.891149
     1414.200000       0.891284
     1414.300000       0.891425
     1414.400000       0.891571
     1414.500000       0.891721
     1414.600000       0.891875
     1414.700000       0.892033
     1414.800000       0.892196
     1414.900000       0.892362
     1415.000000       0.892531
     1415.100000       0.892704
     1415.200000       0.892880
     1415.300000       0.893059
     1415.400000       0.893240
     1415.500000       0.893423
     1415.600000       0.893608
     1415.700000       0.893795
     1415.800000       0.893983
     1415.900000       0.894173
     1416.000000       0.894363
     1416.100000       0.894555
     1416.200000       0.894749
     1416.300000       0.894944
     1416.400000       0.895141
     1416.500000       0.895338
     1416.600000       0.895536
     1416.700000       0.895734
     1416.800000       0.895934
     1416.900000       0.896133
     1417.000000       0.896334
     1417.100000       0.896536
     1417.200000       0.896739
     1417.300000       0.896943
     1417.400000       0.897148
     1417.500000       0.897355
     1417.600000       0.897563
     1417.700000       0.897774
     1417.800000       0.897987
     1417.900000       0.898201
     1418.000000       0.898418
     1418.100000       0.898637
     1418.200000       0.898859
     1418.300000       0.899084
     1418.400000       0.899311
     1418.500000       0.899541
     1418.600000       0.899773
     1418.700000       0.900008
     1418.800000       0.900246
     1418.900000       0.900487
     1419.000000       0.900731
     1419.100000       0.900980
     1419.200000       0.901234
     1419.300000       0.901493
     1419.400000       0.901756
     1419.500000       0.902028
     1419.600000       0.902306
     1419.700000       0.902593
     1419.800000       0.902888
     1419.900000       0.903192
     1420.000000       0.903503
     1420.100000       0.903821
     1420.200000       0.904145
     1420.300000       0.904474
     1420.400000       0.904807
     1420.500000       0.905143
     1420.600000       0.905482
     1420.700000       0.905823
     1420.800000       0.906166
     1420.900000       0.906509
     1421.000000       0.906851
     1421.100000       0.907192
     1421.200000       0.907530
     1421.300000       0.907866
     1421.400000       0.908196
     1421.500000       0.908520
     1421.600000       0.908838
     1421.700000       0.909148
     1421.800000       0.909451
     1421.900000       0.909744
     1422.000000       0.910030
     1422.100000       0.910307
     1422.200000       0.910577
     1422.300000       0.910840
     1422.400000       0.911096
     1422.500000       0.911346
     1422.600000       0.911591
     1422.700000       0.911830
     1422.800000       0.912065
     1422.900000       0.912297
     1423.000000       0.912524
     1423.100000       0.912750
     1423.200000       0.912973
     1423.300000       0.913196
     1423.400000       0.913419
     1423.500000       0.913642
     1423.600000       0.913867
     1423.700000       0.914093
     1423.800000       0.914323
     1423.900000       0.914555
     1424.000000       0.914790
     1424.100000       0.915028
     1424.200000       0.915269
     1424.300000       0.915515
     1424.400000       0.915764
     1424.500000       0.916017
     1424.600000       0.916274
     1424.700000       0.916536
     1424.800000       0.916802
     1424.900000       0.917072
     1425.000000       0.917348
     1425.100000       0.917630
     1425.200000       0.917917
     1425.300000       0.918212
     1425.400000       0.918514
     1425.500000       0.918823
     1425.600000       0.919141
     1425.700000       0.919468
     1425.800000       0.919805
     1425.900000       0.920150
     1426.000000       0.920505
     1426.100000       0.920867
     1426.200000       0.921236
     1426.300000       0.921611
     1426.400000       0.921992
     1426.500000       0.922377
     1426.600000       0.922766
     1426.700000       0.923159
     1426.800000       0.923554
     1426.900000       0.923951
     1427.000000       0.924348
     1427.100000       0.924745
     1427.200000       0.925142
     1427.300000       0.925537
     1427.400000       0.925929
     1427.500000       0.926318
     1427.600000       0.926704
     1427.700000       0.927083
     1427.800000       0.927458
     1427.900000       0.927826
     1428.000000       0.928188
     1428.100000       0.928545
     1428.200000       0.928895
     1428.300000       0.929241
     1428.400000       0.929580
     1428.500000       0.929913
     1428.600000       0.930242
     1428.700000       0.930564
     1428.800000       0.930881
     1428.900000       0.931192
     1429.000000       0.931499
     1429.100000       0.931801
     1429.200000       0.932098
     1429.300000       0.932391
     1429.400000       0.932681
     1429.500000       0.932968
     1429.600000       0.933252
     1429.700000       0.933534
     1429.800000       0.933814
     1429.900000       0.934092
     1430.000000       0.934369
     1430.100000       0.934644
     1430.200000       0.934918
     1430.300000       0.935191
     1430.400000       0.935462
     1430.500000       0.935733
     1430.600000       0.936004
     1430.700000       0.936273
     1430.800000       0.936543
     1430.900000       0.936812
     1431.000000       0.937082
     1431.100000       0.937353
     1431.200000       0.937626
     1431.300000       0.937900
     1431.400000       0.938178
     1431.500000       0.938458
     1431.600000       0.938743
     1431.700000       0.939031
     1431.800000       0.939324
     1431.900000       0.939622
     1432.000000       0.939924
     1432.100000       0.940230
     1432.200000       0.940540
     1432.300000       0.940853
     1432.400000       0.941169
     1432.500000       0.941486
     1432.600000       0.941807
     1432.700000       0.942128
     1432.800000       0.942451
     1432.900000       0.942774
     1433.000000       0.943096
     1433.100000       0.943417
     1433.200000       0.943737
     1433.300000       0.944055
     1433.400000       0.944370
     1433.500000       0.944680
     1433.600000       0.944987
     1433.700000       0.945289
     1433.800000       0.945585
     1433.900000       0.945875
     1434.000000       0.946159
     1434.100000       0.946438
     1434.200000       0.946711
     1434.300000       0.946981
     1434.400000       0.947245
     1434.500000       0.947505
     1434.600000       0.947762
     1434.700000       0.948015
     1434.800000       0.948265
     1434.900000       0.948511
     1435.000000       0.948753
     1435.100000       0.948992
     1435.200000       0.949228
     1435.300000       0.949461
     1435.400000       0.949690
     1435.500000       0.949915
     1435.600000       0.950137
     1435.700000       0.950354
     1435.800000       0.950569
     1435.900000       0.950778
     1436.000000       0.950983
     1436.100000       0.951184
     1436.200000       0.951379
     1436.300000       0.951570
     1436.400000       0.951754
     1436.500000       0.951933
     1436.600000       0.952105
     1436.700000       0.952271
     1436.800000       0.952430
     1436.900000       0.952582
     1437.000000       0.952727
     1437.100000       0.952865
     1437.200000       0.952996
     1437.300000       0.953120
     1437.400000       0.953237
     1437.500000       0.953347
     1437.600000       0.953450
     1437.700000       0.953546
     1437.800000       0.953634
     1437.900000       0.953715
     1438.000000       0.953789
     1438.100000       0.953857
     1438.200000       0.953919
     1438.300000       0.953974
     1438.400000       0.954024
     1438.500000       0.954067
     1438.600000       0.954106
     1438.700000       0.954139
     1438.800000       0.954167
     1438.900000       0.954191
     1439.000000       0.954210
     1439.100000       0.954225
     1439.200000       0.954236
     1439.300000       0.954243
     1439.400000       0.954245
     1439.500000       0.954244
     1439.600000       0.954240
     1439.700000       0.954231
     1439.800000       0.954218
     1439.900000       0.954201
     1440.000000       0.954183
     1440.100000       0.954161
     1440.200000       0.954137
     1440.300000       0.954113
     1440.400000       0.954090
     1440.500000       0.954067
     1440.600000       0.954045
     1440.700000       0.954025
     1440.800000       0.954008
     1440.900000       0.953994
     1441.000000       0.953984
     1441.100000       0.953979
     1441.200000       0.953979
     1441.300000       0.953985
     1441.400000       0.953999
     1441.500000       0.954019
     1441.600000       0.954047
     1441.700000       0.954085
     1441.800000       0.954132
     1441.900000       0.954187
     1442.000000       0.954251
     1442.100000       0.954322
     1442.200000       0.954398
     1442.300000       0.954479
     1442.400000       0.954563
     1442.500000       0.954648
     1442.600000       0.954734
     1442.700000       0.954819
     1442.800000       0.954902
     1442.900000       0.954982
     1443.000000       0.955057
     1443.100000       0.955127
     1443.200000       0.955189
     1443.300000       0.955243
     1443.400000       0.955286
     1443.500000       0.955319
     1443.600000       0.955338
     1443.700000       0.955344
     1443.800000       0.955333
     1443.900000       0.955308
     1444.000000       0.955268
     1444.100000       0.955215
     1444.200000       0.955150
     1444.300000       0.955075
     1444.400000       0.954991
     1444.500000       0.954899
     1444.600000       0.954800
     1444.700000       0.954696
     1444.800000       0.954587
     1444.900000       0.954476
     1445.000000       0.954363
     1445.100000       0.954250
     1445.200000       0.954138
     1445.300000       0.954029
     1445.400000       0.953924
     1445.500000       0.953824
     1445.600000       0.953732
     1445.700000       0.953648
     1445.800000       0.953574
     1445.900000       0.953511
     1446.000000       0.953457
     1446.100000       0.953413
     1446.200000       0.953378
     1446.300000       0.953351
     1446.400000       0.953332
     1446.500000       0.953321
     1446.600000       0.953315
     1446.700000       0.953318
     1446.800000       0.953326
     1446.900000       0.953340
     1447.000000       0.953358
     1447.100000       0.953381
     1447.200000       0.953406
     1447.300000       0.953434
     1447.400000       0.953463
     1447.500000       0.953493
     1447.600000       0.953522
     1447.700000       0.953551
     1447.800000       0.953578
     1447.900000       0.953602
     1448.000000       0.953624
     1448.100000       0.953644
     1448.200000       0.953660
     1448.300000       0.953673
     1448.400000       0.953682
     1448.500000       0.953688
     1448.600000       0.953689
     1448.700000       0.953686
     1448.800000       0.953679
     1448.900000       0.953667
     1449.000000       0.953650
     1449.100000       0.953627
     1449.200000       0.953601
     1449.300000       0.953571
     1449.400000       0.953535
     1449.500000       0.953496
     1449.600000       0.953452
     1449.700000       0.953403
     1449.800000       0.953350
     1449.900000       0.953293
     1450.000000       0.953234
     1450.100000       0.953172
     1450.200000       0.953109
     1450.300000       0.953045
     1450.400000       0.952982
     1450.500000       0.952921
     1450.600000       0.952862
     1450.700000       0.952807
     1450.800000       0.952756
     1450.900000       0.952711
     1451.000000       0.952672
     1451.100000       0.952641
     1451.200000       0.952618
     1451.300000       0.952605
     1451.400000       0.952604
     1451.500000       0.952614
     1451.600000       0.952638
     1451.700000       0.952677
     1451.800000       0.952732
     1451.900000       0.952801
     1452.000000       0.952885
     1452.100000       0.952980
     1452.200000       0.953086
     1452.300000       0.953199
     1452.400000       0.953318
     1452.500000       0.953442
     1452.600000       0.953567
     1452.700000       0.953694
     1452.800000       0.953819
     1452.900000       0.953941
     1453.000000       0.954059
     1453.100000       0.954170
     1453.200000       0.954273
     1453.300000       0.954366
     1453.400000       0.954446
     1453.500000       0.954512
     1453.600000       0.954564
     1453.700000       0.954597
     1453.800000       0.954611
     1453.900000       0.954607
     1454.000000       0.954586
     1454.100000       0.954551
     1454.200000       0.954506
     1454.300000       0.954452
     1454.400000       0.954393
     1454.500000       0.954332
     1454.600000       0.954270
     1454.700000       0.954212
     1454.800000       0.954160
     1454.900000       0.954115
     1455.000000       0.954081
     1455.100000       0.954059
     1455.200000       0.954053
     1455.300000       0.954064
     1455.400000       0.954095
     1455.500000       0.954148
     1455.600000       0.954227
     1455.700000       0.954333
     1455.800000       0.954469
     1455.900000       0.954634
     1456.000000       0.954824
     1456.100000       0.955038
     1456.200000       0.955271
     1456.300000       0.955520
     1456.400000       0.955782
     1456.500000       0.956052
     1456.600000       0.956328
     1456.700000       0.956607
     1456.800000       0.956885
     1456.900000       0.957157
     1457.000000       0.957423
     1457.100000       0.957677
     1457.200000       0.957915
     1457.300000       0.958135
     1457.400000       0.958333
     1457.500000       0.958503
     1457.600000       0.958645
     1457.700000       0.958752
     1457.800000       0.958822
     1457.900000       0.958855
     1458.000000       0.958855
     1458.100000       0.958825
     1458.200000       0.958770
     1458.300000       0.958692
     1458.400000       0.958597
     1458.500000       0.958487
     1458.600000       0.958368
     1458.700000       0.958242
     1458.800000       0.958112
     1458.900000       0.957983
     1459.000000       0.957858
     1459.100000       0.957741
     1459.200000       0.957633
     1459.300000       0.957538
     1459.400000       0.957461
     1459.500000       0.957404
     1459.600000       0.957370
     1459.700000       0.957363
     1459.800000       0.957387
     1459.900000       0.957441
     1460.000000       0.957524
     1460.100000       0.957632
     1460.200000       0.957762
     1460.300000       0.957913
     1460.400000       0.958082
     1460.500000       0.958265
     1460.600000       0.958461
     1460.700000       0.958667
     1460.800000       0.958882
     1460.900000       0.959101
     1461.000000       0.959323
     1461.100000       0.959546
     1461.200000       0.959768
     1461.300000       0.959986
     1461.400000       0.960196
     1461.500000       0.960397
     1461.600000       0.960586
     1461.700000       0.960761
     1461.800000       0.960920
     1461.900000       0.961063
     1462.000000       0.961190
     1462.100000       0.961303
     1462.200000       0.961405
     1462.300000       0.961498
     1462.400000       0.961582
     1462.500000       0.961661
     1462.600000       0.961734
     1462.700000       0.961805
     1462.800000       0.961875
     1462.900000       0.961946
     1463.000000       0.962020
     1463.100000       0.962098
     1463.200000       0.962181
     1463.300000       0.962273
     1463.400000       0.962374
     1463.500000       0.962486
     1463.600000       0.962611
     1463.700000       0.962752
     1463.800000       0.962909
     1463.900000       0.963083
     1464.000000       0.963273
     1464.100000       0.963476
     1464.200000       0.963690
     1464.300000       0.963915
     1464.400000       0.964147
     1464.500000       0.964385
     1464.600000       0.964629
     1464.700000       0.964876
     1464.800000       0.965125
     1464.900000       0.965373
     1465.000000       0.965619
     1465.100000       0.965862
     1465.200000       0.966098
     1465.300000       0.966327
     1465.400000       0.966546
     1465.500000       0.966753
     1465.600000       0.966947
     1465.700000       0.967124
     1465.800000       0.967286
     1465.900000       0.967429
     1466.000000       0.967558
     1466.100000       0.967676
     1466.200000       0.967784
     1466.300000       0.967887
     1466.400000       0.967985
     1466.500000       0.968082
     1466.600000       0.968182
     1466.700000       0.968286
     1466.800000       0.968397
     1466.900000       0.968518
     1467.000000       0.968652
     1467.100000       0.968800
     1467.200000       0.968964
     1467.300000       0.969149
     1467.400000       0.969355
     1467.500000       0.969585
     1467.600000       0.969842
     1467.700000       0.970129
     1467.800000       0.970448
     1467.900000       0.970797
     1468.000000       0.971175
     1468.100000       0.971577
     1468.200000       0.971999
     1468.300000       0.972440
     1468.400000       0.972894
     1468.500000       0.973357
     1468.600000       0.973829
     1468.700000       0.974303
     1468.800000       0.974779
     1468.900000       0.975250
     1469.000000       0.975715
     1469.100000       0.976170
     1469.200000       0.976611
     1469.300000       0.977036
     1469.400000       0.977442
     1469.500000       0.977823
     1469.600000       0.978178
     1469.700000       0.978503
     1469.800000       0.978795
     1469.900000       0.979053
     1470.000000       0.979279
     1470.100000       0.979478
     1470.200000       0.979652
     1470.300000       0.979805
     1470.400000       0.979940
     1470.500000       0.980059
     1470.600000       0.980165
     1470.700000       0.980262
     1470.800000       0.980352
     1470.900000       0.980439
     1471.000000       0.980525
     1471.100000       0.980610
     1471.200000       0.980699
     1471.300000       0.980795
     1471.400000       0.980898
     1471.500000       0.981013
     1471.600000       0.981140
     1471.700000       0.981284
     1471.800000       0.981446
     1471.900000       0.981627
     1472.000000       0.981825
     1472.100000       0.982039
     1472.200000       0.982268
     1472.300000       0.982508
     1472.400000       0.982760
     1472.500000       0.983021
     1472.600000       0.983289
     1472.700000       0.983563
     1472.800000       0.983843
     1472.900000       0.984124
     1473.000000       0.984407
     1473.100000       0.984688
     1473.200000       0.984966
     1473.300000       0.985240
     1473.400000       0.985506
     1473.500000       0.985763
     1473.600000       0.986010
     1473.700000       0.986244
     1473.800000       0.986464
     1473.900000       0.986668
     1474.000000       0.986860
     1474.100000       0.987039
     1474.200000       0.987209
     1474.300000       0.987372
     1474.400000       0.987527
     1474.500000       0.987678
     1474.600000       0.987827
     1474.700000       0.987973
     1474.800000       0.988120
     1474.900000       0.988269
     1475.000000       0.988420
     1475.100000       0.988578
     1475.200000       0.988744
     1475.300000       0.988920
     1475.400000       0.989108
     1475.500000       0.989309
     1475.600000       0.989526
     1475.700000       0.989762
     1475.800000       0.990018
     1475.900000       0.990293
     1476.000000       0.990586
     1476.100000       0.990896
     1476.200000       0.991219
     1476.300000       0.991555
     1476.400000       0.991899
     1476.500000       0.992252
     1476.600000       0.992610
     1476.700000       0.992972
     1476.800000       0.993336
     1476.900000       0.993700
     1477.000000       0.994064
     1477.100000       0.994424
     1477.200000       0.994782
     1477.300000       0.995135
     1477.400000       0.995482
     1477.500000       0.995821
     1477.600000       0.996151
     1477.700000       0.996472
     1477.800000       0.996782
     1477.900000       0.997078
     1478.000000       0.997363
     1478.100000       0.997634
     1478.200000       0.997893
     1478.300000       0.998139
     1478.400000       0.998370
     1478.500000       0.998588
     1478.600000       0.998791
     1478.700000       0.998979
     1478.800000       0.999152
     1478.900000       0.999310
     1479.000000       0.999451
     1479.100000       0.999577
     1479.200000       0.999687
     1479.300000       0.999781
     1479.400000       0.999858
     1479.500000       0.999919
     1479.600000       0.999964
     1479.700000       0.999991
     1479.800000       1.000000
     1479.900000       0.999992
     1480.000000       0.999969
     1480.100000       0.999931
     1480.200000       0.999882
     1480.300000       0.999821
     1480.400000       0.999751
     1480.500000       0.999674
     1480.600000       0.999591
     1480.700000       0.999502
     1480.800000       0.999410
     1480.900000       0.999316
     1481.000000       0.999221
     1481.100000       0.999125
     1481.200000       0.999030
     1481.300000       0.998937
     1481.400000       0.998846
     1481.500000       0.998759
     1481.600000       0.998677
     1481.700000       0.998599
     1481.800000       0.998528
     1481.900000       0.998464
     1482.000000       0.998406
     1482.100000       0.998355
     1482.200000       0.998309
     1482.300000       0.998267
     1482.400000       0.998232
     1482.500000       0.998201
     1482.600000       0.998174
     1482.700000       0.998152
     1482.800000       0.998133
     1482.900000       0.998117
     1483.000000       0.998104
     1483.100000       0.998095
     1483.200000       0.998089
     1483.300000       0.998085
     1483.400000       0.998083
     1483.500000       0.998084
     1483.600000       0.998087
     1483.700000       0.998092
     1483.800000       0.998099
     1483.900000       0.998107
     1484.000000       0.998116
     1484.100000       0.998126
     1484.200000       0.998136
     1484.300000       0.998147
     1484.400000       0.998158
     1484.500000       0.998169
     1484.600000       0.998178
     1484.700000       0.998186
     1484.800000       0.998194
     1484.900000       0.998200
     1485.000000       0.998204
     1485.100000       0.998206
     1485.200000       0.998206
     1485.300000       0.998203
     1485.400000       0.998199
     1485.500000       0.998192
     1485.600000       0.998182
     1485.700000       0.998169
     1485.800000       0.998154
     1485.900000       0.998135
     1486.000000       0.998113
     1486.100000       0.998089
     1486.200000       0.998062
     1486.300000       0.998034
     1486.400000       0.998004
     1486.500000       0.997973
     1486.600000       0.997942
     1486.700000       0.997909
     1486.800000       0.997875
     1486.900000       0.997841
     1487.000000       0.997808
     1487.100000       0.997776
     1487.200000       0.997746
     1487.300000       0.997719
     1487.400000       0.997695
     1487.500000       0.997675
     1487.600000       0.997659
     1487.700000       0.997649
     1487.800000       0.997645
     1487.900000       0.997646
     1488.000000       0.997651
     1488.100000       0.997657
     1488.200000       0.997663
     1488.300000       0.997668
     1488.400000       0.997668
     1488.500000       0.997664
     1488.600000       0.997652
     1488.700000       0.997631
     1488.800000       0.997599
     1488.900000       0.997554
     1489.000000       0.997494
     1489.100000       0.997417
     1489.200000       0.997322
     1489.300000       0.997206
     1489.400000       0.997069
     1489.500000       0.996906
     1489.600000       0.996717
     1489.700000       0.996498
     1489.800000       0.996248
     1489.900000       0.995968
     1490.000000       0.995660
     1490.100000       0.995326
     1490.200000       0.994970
     1490.300000       0.994594
     1490.400000       0.994200
     1490.500000       0.993792
     1490.600000       0.993371
     1490.700000       0.992939
     1490.800000       0.992500
     1490.900000       0.992056
     1491.000000       0.991609
     1491.100000       0.991164
     1491.200000       0.990723
     1491.300000       0.990287
     1491.400000       0.989861
     1491.500000       0.989448
     1491.600000       0.989049
     1491.700000       0.988668
     1491.800000       0.988306
     1491.900000       0.987966
     1492.000000       0.987644
     1492.100000       0.987338
     1492.200000       0.987046
     1492.300000       0.986765
     1492.400000       0.986493
     1492.500000       0.986228
     1492.600000       0.985967
     1492.700000       0.985707
     1492.800000       0.985448
     1492.900000       0.985185
     1493.000000       0.984918
     1493.100000       0.984644
     1493.200000       0.984361
     1493.300000       0.984065
     1493.400000       0.983755
     1493.500000       0.983429
     1493.600000       0.983085
     1493.700000       0.982718
     1493.800000       0.982328
     1493.900000       0.981915
     1494.000000       0.981479
     1494.100000       0.981024
     1494.200000       0.980552
     1494.300000       0.980064
     1494.400000       0.979563
     1494.500000       0.979051
     1494.600000       0.978529
     1494.700000       0.978000
     1494.800000       0.977466
     1494.900000       0.976929
     1495.000000       0.976390
     1495.100000       0.975853
     1495.200000       0.975320
     1495.300000       0.974793
     1495.400000       0.974274
     1495.500000       0.973765
     1495.600000       0.973269
     1495.700000       0.972788
     1495.800000       0.972324
     1495.900000       0.971878
     1496.000000       0.971448
     1496.100000       0.971033
     1496.200000       0.970630
     1496.300000       0.970238
     1496.400000       0.969856
     1496.500000       0.969482
     1496.600000       0.969115
     1496.700000       0.968753
     1496.800000       0.968395
     1496.900000       0.968039
     1497.000000       0.967683
     1497.100000       0.967329
     1497.200000       0.966972
     1497.300000       0.966613
     1497.400000       0.966251
     1497.500000       0.965884
     1497.600000       0.965510
     1497.700000       0.965130
     1497.800000       0.964742
     1497.900000       0.964345
     1498.000000       0.963940
     1498.100000       0.963529
     1498.200000       0.963112
     1498.300000       0.962689
     1498.400000       0.962262
     1498.500000       0.961831
     1498.600000       0.961398
     1498.700000       0.960962
     1498.800000       0.960525
     1498.900000       0.960088
     1499.000000       0.959653
     1499.100000       0.959219
     1499.200000       0.958789
     1499.300000       0.958364
     1499.400000       0.957945
     1499.500000       0.957535
     1499.600000       0.957133
     1499.700000       0.956742
     1499.800000       0.956362
     1499.900000       0.955995
     1500.000000       0.955638
     1500.100000       0.955290
     1500.200000       0.954949
     1500.300000       0.954613
     1500.400000       0.954283
     1500.500000       0.953955
     1500.600000       0.953630
     1500.700000       0.953306
     1500.800000       0.952980
     1500.900000       0.952652
     1501.000000       0.952321
     1501.100000       0.951985
     1501.200000       0.951641
     1501.300000       0.951288
     1501.400000       0.950926
     1501.500000       0.950553
     1501.600000       0.950168
     1501.700000       0.949767
     1501.800000       0.949351
     1501.900000       0.948920
     1502.000000       0.948476
     1502.100000       0.948019
     1502.200000       0.947551
     1502.300000       0.947074
     1502.400000       0.946591
     1502.500000       0.946101
     1502.600000       0.945608
     1502.700000       0.945113
     1502.800000       0.944617
     1502.900000       0.944121
     1503.000000       0.943628
     1503.100000       0.943138
     1503.200000       0.942654
     1503.300000       0.942177
     1503.400000       0.941707
     1503.500000       0.941247
     1503.600000       0.940799
     1503.700000       0.940363
     1503.800000       0.939940
     1503.900000       0.939531
     1504.000000       0.939135
     1504.100000       0.938751
     1504.200000       0.938375
     1504.300000       0.938006
     1504.400000       0.937643
     1504.500000       0.937285
     1504.600000       0.936931
     1504.700000       0.936578
     1504.800000       0.936225
     1504.900000       0.935870
     1505.000000       0.935513
     1505.100000       0.935153
     1505.200000       0.934787
     1505.300000       0.934416
     1505.400000       0.934038
     1505.500000       0.933651
     1505.600000       0.933255
     1505.700000       0.932848
     1505.800000       0.932429
     1505.900000       0.931999
     1506.000000       0.931559
     1506.100000       0.931112
     1506.200000       0.930657
     1506.300000       0.930198
     1506.400000       0.929736
     1506.500000       0.929273
     1506.600000       0.928810
     1506.700000       0.928349
     1506.800000       0.927892
     1506.900000       0.927440
     1507.000000       0.926996
     1507.100000       0.926562
     1507.200000       0.926139
     1507.300000       0.925729
     1507.400000       0.925336
     1507.500000       0.924961
     1507.600000       0.924607
     1507.700000       0.924274
     1507.800000       0.923966
     1507.900000       0.923682
     1508.000000       0.923419
     1508.100000       0.923173
     1508.200000       0.922942
     1508.300000       0.922721
     1508.400000       0.922508
     1508.500000       0.922299
     1508.600000       0.922092
     1508.700000       0.921883
     1508.800000       0.921669
     1508.900000       0.921446
     1509.000000       0.921212
     1509.100000       0.920963
     1509.200000       0.920695
     1509.300000       0.920404
     1509.400000       0.920088
     1509.500000       0.919741
     1509.600000       0.919363
     1509.700000       0.918947
     1509.800000       0.918490
     1509.900000       0.917995
     1510.000000       0.917465
     1510.100000       0.916905
     1510.200000       0.916320
     1510.300000       0.915713
     1510.400000       0.915092
     1510.500000       0.914461
     1510.600000       0.913824
     1510.700000       0.913185
     1510.800000       0.912550
     1510.900000       0.911924
     1511.000000       0.911311
     1511.100000       0.910713
     1511.200000       0.910136
     1511.300000       0.909583
     1511.400000       0.909060
     1511.500000       0.908568
     1511.600000       0.908116
     1511.700000       0.907705
     1511.800000       0.907340
     1511.900000       0.907021
     1512.000000       0.906745
     1512.100000       0.906508
     1512.200000       0.906305
     1512.300000       0.906132
     1512.400000       0.905987
     1512.500000       0.905864
     1512.600000       0.905760
     1512.700000       0.905673
     1512.800000       0.905597
     1512.900000       0.905531
     1513.000000       0.905469
     1513.100000       0.905408
     1513.200000       0.905346
     1513.300000       0.905278
     1513.400000       0.905201
     1513.500000       0.905112
     1513.600000       0.905008
     1513.700000       0.904883
     1513.800000       0.904736
     1513.900000       0.904567
     1514.000000       0.904376
     1514.100000       0.904166
     1514.200000       0.903941
     1514.300000       0.903701
     1514.400000       0.903450
     1514.500000       0.903189
     1514.600000       0.902922
     1514.700000       0.902651
     1514.800000       0.902376
     1514.900000       0.902102
     1515.000000       0.901831
     1515.100000       0.901564
     1515.200000       0.901305
     1515.300000       0.901056
     1515.400000       0.900818
     1515.500000       0.900596
     1515.600000       0.900392
     1515.700000       0.900207
     1515.800000       0.900044
     1515.900000       0.899904
     1516.000000       0.899785
     1516.100000       0.899685
     1516.200000       0.899602
     1516.300000       0.899534
     1516.400000       0.899479
     1516.500000       0.899436
     1516.600000       0.899402
     1516.700000       0.899377
     1516.800000       0.899357
     1516.900000       0.899341
     1517.000000       0.899328
     1517.100000       0.899315
     1517.200000       0.899300
     1517.300000       0.899282
     1517.400000       0.899259
     1517.500000       0.899227
     1517.600000       0.899186
     1517.700000       0.899134
     1517.800000       0.899069
     1517.900000       0.898990
     1518.000000       0.898899
     1518.100000       0.898798
     1518.200000       0.898686
     1518.300000       0.898566
     1518.400000       0.898438
     1518.500000       0.898304
     1518.600000       0.898166
     1518.700000       0.898023
     1518.800000       0.897877
     1518.900000       0.897731
     1519.000000       0.897585
     1519.100000       0.897441
     1519.200000       0.897300
     1519.300000       0.897165
     1519.400000       0.897037
     1519.500000       0.896917
     1519.600000       0.896807
     1519.700000       0.896709
     1519.800000       0.896624
     1519.900000       0.896552
     1520.000000       0.896493
     1520.100000       0.896443
     1520.200000       0.896404
     1520.300000       0.896371
     1520.400000       0.896345
     1520.500000       0.896324
     1520.600000       0.896306
     1520.700000       0.896290
     1520.800000       0.896275
     1520.900000       0.896260
     1521.000000       0.896243
     1521.100000       0.896222
     1521.200000       0.896197
     1521.300000       0.896166
     1521.400000       0.896128
     1521.500000       0.896081
     1521.600000       0.896025
     1521.700000       0.895957
     1521.800000       0.895877
     1521.900000       0.895784
     1522.000000       0.895679
     1522.100000       0.895565
     1522.200000       0.895442
     1522.300000       0.895311
     1522.400000       0.895174
     1522.500000       0.895031
     1522.600000       0.894885
     1522.700000       0.894736
     1522.800000       0.894586
     1522.900000       0.894436
     1523.000000       0.894286
     1523.100000       0.894138
     1523.200000       0.893995
     1523.300000       0.893855
     1523.400000       0.893721
     1523.500000       0.893595
     1523.600000       0.893476
     1523.700000       0.893368
     1523.800000       0.893270
     1523.900000       0.893183
     1524.000000       0.893106
     1524.100000       0.893037
     1524.200000       0.892976
     1524.300000       0.892921
     1524.400000       0.892871
     1524.500000       0.892826
     1524.600000       0.892783
     1524.700000       0.892741
     1524.800000       0.892700
     1524.900000       0.892658
     1525.000000       0.892615
     1525.100000       0.892570
     1525.200000       0.892521
     1525.300000       0.892469
     1525.400000       0.892413
     1525.500000       0.892351
     1525.600000       0.892282
     1525.700000       0.892208
     1525.800000       0.892124
     1525.900000       0.892033
     1526.000000       0.891933
     1526.100000       0.891827
     1526.200000       0.891714
     1526.300000       0.891594
     1526.400000       0.891469
     1526.500000       0.891338
     1526.600000       0.891201
     1526.700000       0.891059
     1526.800000       0.890912
     1526.900000       0.890761
     1527.000000       0.890607
     1527.100000       0.890451
     1527.200000       0.890294
     1527.300000       0.890136
     1527.400000       0.889980
     1527.500000       0.889825
     1527.600000       0.889675
     1527.700000       0.889528
     1527.800000       0.889387
     1527.900000       0.889252
     1528.000000       0.889124
     1528.100000       0.889003
     1528.200000       0.888888
     1528.300000       0.888780
     1528.400000       0.888680
     1528.500000       0.888589
     1528.600000       0.888505
     1528.700000       0.888431
     1528.800000       0.888365
     1528.900000       0.888309
     1529.000000       0.888262
     1529.100000       0.888225
     1529.200000       0.888197
     1529.300000       0.888178
     1529.400000       0.888169
     1529.500000       0.888171
     1529.600000       0.888182
     1529.700000       0.888203
     1529.800000       0.888235
     1529.900000       0.888276
     1530.000000       0.888327
     1530.100000       0.888386
     1530.200000       0.888451
     1530.300000       0.888522
     1530.400000       0.888597
     1530.500000       0.888677
     1530.600000       0.888760
     1530.700000       0.888844
     1530.800000       0.888930
     1530.900000       0.889016
     1531.000000       0.889101
     1531.100000       0.889182
     1531.200000       0.889259
     1531.300000       0.889330
     1531.400000       0.889394
     1531.500000       0.889449
     1531.600000       0.889493
     1531.700000       0.889526
     1531.800000       0.889547
     1531.900000       0.889554
     1532.000000       0.889551
     1532.100000       0.889538
     1532.200000       0.889518
     1532.300000       0.889494
     1532.400000       0.889466
     1532.500000       0.889436
     1532.600000       0.889407
     1532.700000       0.889381
     1532.800000       0.889359
     1532.900000       0.889344
     1533.000000       0.889336
     1533.100000       0.889339
     1533.200000       0.889352
     1533.300000       0.889377
     1533.400000       0.889417
     1533.500000       0.889473
     1533.600000       0.889548
     1533.700000       0.889642
     1533.800000       0.889758
     1533.900000       0.889895
     1534.000000       0.890054
     1534.100000       0.890231
     1534.200000       0.890425
     1534.300000       0.890636
     1534.400000       0.890861
     1534.500000       0.891098
     1534.600000       0.891347
     1534.700000       0.891607
     1534.800000       0.891875
     1534.900000       0.892151
     1535.000000       0.892434
     1535.100000       0.892723
     1535.200000       0.893016
     1535.300000       0.893315
     1535.400000       0.893617
     1535.500000       0.893920
     1535.600000       0.894225
     1535.700000       0.894531
     1535.800000       0.894837
     1535.900000       0.895142
     1536.000000       0.895444
     1536.100000       0.895744
     1536.200000       0.896042
     1536.300000       0.896335
     1536.400000       0.896623
     1536.500000       0.896905
     1536.600000       0.897181
     1536.700000       0.897450
     1536.800000       0.897711
     1536.900000       0.897963
     1537.000000       0.898205
     1537.100000       0.898437
     1537.200000       0.898659
     1537.300000       0.898870
     1537.400000       0.899069
     1537.500000       0.899254
     1537.600000       0.899427
     1537.700000       0.899586
     1537.800000       0.899730
     1537.900000       0.899859
     1538.000000       0.899976
     1538.100000       0.900081
     1538.200000       0.900176
     1538.300000       0.900264
     1538.400000       0.900345
     1538.500000       0.900421
     1538.600000       0.900493
     1538.700000       0.900564
     1538.800000       0.900634
     1538.900000       0.900704
     1539.000000       0.900778
     1539.100000       0.900855
     1539.200000       0.900939
     1539.300000       0.901030
     1539.400000       0.901130
     1539.500000       0.901240
     1539.600000       0.901363
     1539.700000       0.901499
     1539.800000       0.901652
     1539.900000       0.901819
     1540.000000       0.902001
     1540.100000       0.902193
     1540.200000       0.902397
     1540.300000       0.902608
     1540.400000       0.902827
     1540.500000       0.903050
     1540.600000       0.903276
     1540.700000       0.903503
     1540.800000       0.903730
     1540.900000       0.903955
     1541.000000       0.904176
     1541.100000       0.904392
     1541.200000       0.904600
     1541.300000       0.904801
     1541.400000       0.904991
     1541.500000       0.905170
     1541.600000       0.905336
     1541.700000       0.905486
     1541.800000       0.905621
     1541.900000       0.905739
     1542.000000       0.905841
     1542.100000       0.905929
     1542.200000       0.906005
     1542.300000       0.906071
     1542.400000       0.906126
     1542.500000       0.906173
     1542.600000       0.906213
     1542.700000       0.906248
     1542.800000       0.906279
     1542.900000       0.906306
     1543.000000       0.906332
     1543.100000       0.906357
     1543.200000       0.906383
     1543.300000       0.906410
     1543.400000       0.906441
     1543.500000       0.906476
     1543.600000       0.906517
     1543.700000       0.906564
     1543.800000       0.906619
     1543.900000       0.906682
     1544.000000       0.906754
     1544.100000       0.906833
     1544.200000       0.906920
     1544.300000       0.907015
     1544.400000       0.907115
     1544.500000       0.907223
     1544.600000       0.907337
     1544.700000       0.907458
     1544.800000       0.907585
     1544.900000       0.907718
     1545.000000       0.907857
     1545.100000       0.908001
     1545.200000       0.908150
     1545.300000       0.908305
     1545.400000       0.908463
     1545.500000       0.908627
     1545.600000       0.908796
     1545.700000       0.908969
     1545.800000       0.909146
     1545.900000       0.909328
     1546.000000       0.909513
     1546.100000       0.909701
     1546.200000       0.909891
     1546.300000       0.910084
     1546.400000       0.910277
     1546.500000       0.910471
     1546.600000       0.910666
     1546.700000       0.910860
     1546.800000       0.911053
     1546.900000       0.911245
     1547.000000       0.911435
     1547.100000       0.911623
     1547.200000       0.911807
     1547.300000       0.911988
     1547.400000       0.912165
     1547.500000       0.912336
     1547.600000       0.912502
     1547.700000       0.912662
     1547.800000       0.912815
     1547.900000       0.912962
     1548.000000       0.913102
     1548.100000       0.913236
     1548.200000       0.913366
     1548.300000       0.913490
     1548.400000       0.913609
     1548.500000       0.913725
     1548.600000       0.913838
     1548.700000       0.913947
     1548.800000       0.914055
     1548.900000       0.914160
     1549.000000       0.914264
     1549.100000       0.914369
     1549.200000       0.914474
     1549.300000       0.914582
     1549.400000       0.914692
     1549.500000       0.914805
     1549.600000       0.914923
     1549.700000       0.915047
     1549.800000       0.915176
     1549.900000       0.915313
     1550.000000       0.915455
     1550.100000       0.915604
     1550.200000       0.915758
     1550.300000       0.915918
     1550.400000       0.916083
     1550.500000       0.916253
     1550.600000       0.916428
     1550.700000       0.916608
     1550.800000       0.916794
     1550.900000       0.916982
     1551.000000       0.917176
     1551.100000       0.917373
     1551.200000       0.917573
     1551.300000       0.917776
     1551.400000       0.917982
     1551.500000       0.918190
     1551.600000       0.918400
     1551.700000       0.918612
     1551.800000       0.918825
     1551.900000       0.919040
     1552.000000       0.919255
     1552.100000       0.919470
     1552.200000       0.919683
     1552.300000       0.919896
     1552.400000       0.920107
     1552.500000       0.920314
     1552.600000       0.920518
     1552.700000       0.920719
     1552.800000       0.920915
     1552.900000       0.921105
     1553.000000       0.921290
     1553.100000       0.921469
     1553.200000       0.921640
     1553.300000       0.921803
     1553.400000       0.921958
     1553.500000       0.922104
     1553.600000       0.922241
     1553.700000       0.922366
     1553.800000       0.922481
     1553.900000       0.922584
     1554.000000       0.922676
     1554.100000       0.922759
     1554.200000       0.922832
     1554.300000       0.922895
     1554.400000       0.922951
     1554.500000       0.922997
     1554.600000       0.923036
     1554.700000       0.923068
     1554.800000       0.923093
     1554.900000       0.923111
     1555.000000       0.923123
     1555.100000       0.923131
     1555.200000       0.923135
     1555.300000       0.923136
     1555.400000       0.923134
     1555.500000       0.923129
     1555.600000       0.923123
     1555.700000       0.923116
     1555.800000       0.923107
     1555.900000       0.923099
     1556.000000       0.923087
     1556.100000       0.923072
     1556.200000       0.923051
     1556.300000       0.923024
     1556.400000       0.922988
     1556.500000       0.922943
     1556.600000       0.922885
     1556.700000       0.922814
     1556.800000       0.922727
     1556.900000       0.922623
     1557.000000       0.922502
     1557.100000       0.922364
     1557.200000       0.922206
     1557.300000       0.922028
     1557.400000       0.921829
     1557.500000       0.921607
     1557.600000       0.921361
     1557.700000       0.921091
     1557.800000       0.920794
     1557.900000       0.920472
     1558.000000       0.920126
     1558.100000       0.919760
     1558.200000       0.919376
     1558.300000       0.918977
     1558.400000       0.918565
     1558.500000       0.918143
     1558.600000       0.917714
     1558.700000       0.917278
     1558.800000       0.916839
     1558.900000       0.916400
     1559.000000       0.915963
     1559.100000       0.915531
     1559.200000       0.915108
     1559.300000       0.914696
     1559.400000       0.914300
     1559.500000       0.913921
     1559.600000       0.913563
     1559.700000       0.913229
     1559.800000       0.912921
     1559.900000       0.912640
     1560.000000       0.912383
     1560.100000       0.912146
     1560.200000       0.911926
     1560.300000       0.911720
     1560.400000       0.911525
     1560.500000       0.911339
     1560.600000       0.911157
     1560.700000       0.910977
     1560.800000       0.910795
     1560.900000       0.910608
     1561.000000       0.910415
     1561.100000       0.910211
     1561.200000       0.909993
     1561.300000       0.909759
     1561.400000       0.909505
     1561.500000       0.909228
     1561.600000       0.908925
     1561.700000       0.908593
     1561.800000       0.908228
     1561.900000       0.907832
     1562.000000       0.907405
     1562.100000       0.906950
     1562.200000       0.906472
     1562.300000       0.905970
     1562.400000       0.905449
     1562.500000       0.904911
     1562.600000       0.904358
     1562.700000       0.903793
     1562.800000       0.903217
     1562.900000       0.902635
     1563.000000       0.902047
     1563.100000       0.901458
     1563.200000       0.900867
     1563.300000       0.900277
     1563.400000       0.899694
     1563.500000       0.899117
     1563.600000       0.898549
     1563.700000       0.897992
     1563.800000       0.897450
     1563.900000       0.896921
     1564.000000       0.896406
     1564.100000       0.895903
     1564.200000       0.895411
     1564.300000       0.894926
     1564.400000       0.894451
     1564.500000       0.893982
     1564.600000       0.893519
     1564.700000       0.893061
     1564.800000       0.892605
     1564.900000       0.892152
     1565.000000       0.891700
     1565.100000       0.891248
     1565.200000       0.890795
     1565.300000       0.890340
     1565.400000       0.889882
     1565.500000       0.889419
     1565.600000       0.888951
     1565.700000       0.888476
     1565.800000       0.887992
     1565.900000       0.887502
     1566.000000       0.887003
     1566.100000       0.886499
     1566.200000       0.885987
     1566.300000       0.885470
     1566.400000       0.884948
     1566.500000       0.884423
     1566.600000       0.883893
     1566.700000       0.883360
     1566.800000       0.882824
     1566.900000       0.882287
     1567.000000       0.881748
     1567.100000       0.881209
     1567.200000       0.880670
     1567.300000       0.880133
     1567.400000       0.879598
     1567.500000       0.879066
     1567.600000       0.878538
     1567.700000       0.878015
     1567.800000       0.877496
     1567.900000       0.876984
     1568.000000       0.876477
     1568.100000       0.875975
     1568.200000       0.875478
     1568.300000       0.874983
     1568.400000       0.874494
     1568.500000       0.874008
     1568.600000       0.873526
     1568.700000       0.873047
     1568.800000       0.872570
     1568.900000       0.872097
     1569.000000       0.871627
     1569.100000       0.871158
     1569.200000       0.870692
     1569.300000       0.870226
     1569.400000       0.869764
     1569.500000       0.869303
     1569.600000       0.868843
     1569.700000       0.868385
     1569.800000       0.867926
     1569.900000       0.867470
     1570.000000       0.867015
     1570.100000       0.866562
     1570.200000       0.866110
     1570.300000       0.865659
     1570.400000       0.865212
     1570.500000       0.864766
     1570.600000       0.864323
     1570.700000       0.863883
     1570.800000       0.863445
     1570.900000       0.863011
     1571.000000       0.862581
     1571.100000       0.862154
     1571.200000       0.861732
     1571.300000       0.861313
     1571.400000       0.860898
     1571.500000       0.860488
     1571.600000       0.860083
     1571.700000       0.859684
     1571.800000       0.859289
     1571.900000       0.858901
     1572.000000       0.858518
     1572.100000       0.858140
     1572.200000       0.857765
     1572.300000       0.857395
     1572.400000       0.857030
     1572.500000       0.856668
     1572.600000       0.856309
     1572.700000       0.855954
     1572.800000       0.855600
     1572.900000       0.855250
     1573.000000       0.854901
     1573.100000       0.854554
     1573.200000       0.854206
     1573.300000       0.853858
     1573.400000       0.853509
     1573.500000       0.853158
     1573.600000       0.852804
     1573.700000       0.852448
     1573.800000       0.852088
     1573.900000       0.851724
     1574.000000       0.851357
     1574.100000       0.850988
     1574.200000       0.850616
     1574.300000       0.850243
     1574.400000       0.849869
     1574.500000       0.849495
     1574.600000       0.849120
     1574.700000       0.848746
     1574.800000       0.848372
     1574.900000       0.848001
     1575.000000       0.847631
     1575.100000       0.847262
     1575.200000       0.846896
     1575.300000       0.846532
     1575.400000       0.846171
     1575.500000       0.845814
     1575.600000       0.845459
     1575.700000       0.845109
     1575.800000       0.844762
     1575.900000       0.844420
     1576.000000       0.844083
     1576.100000       0.843750
     1576.200000       0.843423
     1576.300000       0.843100
     1576.400000       0.842784
     1576.500000       0.842474
     1576.600000       0.842171
     1576.700000       0.841874
     1576.800000       0.841583
     1576.900000       0.841298
     1577.000000       0.841021
     1577.100000       0.840749
     1577.200000       0.840483
     1577.300000       0.840222
     1577.400000       0.839966
     1577.500000       0.839716
     1577.600000       0.839470
     1577.700000       0.839228
     1577.800000       0.838991
     1577.900000       0.838758
     1578.000000       0.838529
     1578.100000       0.838303
     1578.200000       0.838080
     1578.300000       0.837860
     1578.400000       0.837643
     1578.500000       0.837429
     1578.600000       0.837217
     1578.700000       0.837006
     1578.800000       0.836797
     1578.900000       0.836590
     1579.000000       0.836384
     1579.100000       0.836179
     1579.200000       0.835974
     1579.300000       0.835770
     1579.400000       0.835565
     1579.500000       0.835361
     1579.600000       0.835156
     1579.700000       0.834950
     1579.800000       0.834742
     1579.900000       0.834534
     1580.000000       0.834325
     1580.100000       0.834116
     1580.200000       0.833904
     1580.300000       0.833693
     1580.400000       0.833481
     1580.500000       0.833269
     1580.600000       0.833056
     1580.700000       0.832843
     1580.800000       0.832631
     1580.900000       0.832418
     1581.000000       0.832204
     1581.100000       0.831988
     1581.200000       0.831770
     1581.300000       0.831549
     1581.400000       0.831324
     1581.500000       0.831094
     1581.600000       0.830860
     1581.700000       0.830619
     1581.800000       0.830371
     1581.900000       0.830118
     1582.000000       0.829858
     1582.100000       0.829593
     1582.200000       0.829325
     1582.300000       0.829053
     1582.400000       0.828779
     1582.500000       0.828504
     1582.600000       0.828227
     1582.700000       0.827951
     1582.800000       0.827674
     1582.900000       0.827401
     1583.000000       0.827130
     1583.100000       0.826862
     1583.200000       0.826598
     1583.300000       0.826339
     1583.400000       0.826087
     1583.500000       0.825841
     1583.600000       0.825603
     1583.700000       0.825373
     1583.800000       0.825152
     1583.900000       0.824940
     1584.000000       0.824737
     1584.100000       0.824540
     1584.200000       0.824350
     1584.300000       0.824163
     1584.400000       0.823981
     1584.500000       0.823801
     1584.600000       0.823622
     1584.700000       0.823443
     1584.800000       0.823262
     1584.900000       0.823079
     1585.000000       0.822894
     1585.100000       0.822704
     1585.200000       0.822508
     1585.300000       0.822307
     1585.400000       0.822098
     1585.500000       0.821880
     1585.600000       0.821653
     1585.700000       0.821414
     1585.800000       0.821163
     1585.900000       0.820899
     1586.000000       0.820623
     1586.100000       0.820335
     1586.200000       0.820037
     1586.300000       0.819728
     1586.400000       0.819410
     1586.500000       0.819081
     1586.600000       0.818745
     1586.700000       0.818399
     1586.800000       0.818043
     1586.900000       0.817680
     1587.000000       0.817310
     1587.100000       0.816933
     1587.200000       0.816550
     1587.300000       0.816163
     1587.400000       0.815771
     1587.500000       0.815376
     1587.600000       0.814978
     1587.700000       0.814578
     1587.800000       0.814175
     1587.900000       0.813771
     1588.000000       0.813364
     1588.100000       0.812954
     1588.200000       0.812540
     1588.300000       0.812122
     1588.400000       0.811700
     1588.500000       0.811272
     1588.600000       0.810837
     1588.700000       0.810396
     1588.800000       0.809945
     1588.900000       0.809487
     1589.000000       0.809020
     1589.100000       0.808541
     1589.200000       0.808052
     1589.300000       0.807549
     1589.400000       0.807035
     1589.500000       0.806506
     1589.600000       0.805962
     1589.700000       0.805401
     1589.800000       0.804822
     1589.900000       0.804226
     1590.000000       0.803614
     1590.100000       0.802986
     1590.200000       0.802346
     1590.300000       0.801694
     1590.400000       0.801032
     1590.500000       0.800362
     1590.600000       0.799684
     1590.700000       0.798999
     1590.800000       0.798306
     1590.900000       0.797612
     1591.000000       0.796917
     1591.100000       0.796224
     1591.200000       0.795536
     1591.300000       0.794855
     1591.400000       0.794187
     1591.500000       0.793532
     1591.600000       0.792894
     1591.700000       0.792276
     1591.800000       0.791679
     1591.900000       0.791106
     1592.000000       0.790555
     1592.100000       0.790023
     1592.200000       0.789508
     1592.300000       0.789010
     1592.400000       0.788525
     1592.500000       0.788053
     1592.600000       0.787593
     1592.700000       0.787142
     1592.800000       0.786699
     1592.900000       0.786263
     1593.000000       0.785831
     1593.100000       0.785400
     1593.200000       0.784967
     1593.300000       0.784531
     1593.400000       0.784088
     1593.500000       0.783636
     1593.600000       0.783175
     1593.700000       0.782699
     1593.800000       0.782207
     1593.900000       0.781701
     1594.000000       0.781181
     1594.100000       0.780648
     1594.200000       0.780105
     1594.300000       0.779552
     1594.400000       0.778994
     1594.500000       0.778431
     1594.600000       0.777865
     1594.700000       0.777299
     1594.800000       0.776732
     1594.900000       0.776169
     1595.000000       0.775611
     1595.100000       0.775060
     1595.200000       0.774517
     1595.300000       0.773984
     1595.400000       0.773465
     1595.500000       0.772961
     1595.600000       0.772473
     1595.700000       0.772004
     1595.800000       0.771556
     1595.900000       0.771131
     1596.000000       0.770726
     1596.100000       0.770341
     1596.200000       0.769974
     1596.300000       0.769623
     1596.400000       0.769289
     1596.500000       0.768969
     1596.600000       0.768664
     1596.700000       0.768371
     1596.800000       0.768091
     1596.900000       0.767822
     1597.000000       0.767565
     1597.100000       0.767318
     1597.200000       0.767080
     1597.300000       0.766850
     1597.400000       0.766629
     1597.500000       0.766417
     1597.600000       0.766212
     1597.700000       0.766012
     1597.800000       0.765820
     1597.900000       0.765633
     1598.000000       0.765452
     1598.100000       0.765274
     1598.200000       0.765099
     1598.300000       0.764927
     1598.400000       0.764756
     1598.500000       0.764586
     1598.600000       0.764416
     1598.700000       0.764245
     1598.800000       0.764072
     1598.900000       0.763898
     1599.000000       0.763720
     1599.100000       0.763540
     1599.200000       0.763356
     1599.300000       0.763167
     1599.400000       0.762973
     1599.500000       0.762775
     1599.600000       0.762571
     1599.700000       0.762360
     1599.800000       0.762143
     1599.900000       0.761919
     1600.000000       0.761691
     1600.100000       0.761457
     1600.200000       0.761221
     1600.300000       0.760982
     1600.400000       0.760743
     1600.500000       0.760504
     1600.600000       0.760267
     1600.700000       0.760033
     1600.800000       0.759802
     1600.900000       0.759577
     1601.000000       0.759357
     1601.100000       0.759144
     1601.200000       0.758937
     1601.300000       0.758738
     1601.400000       0.758547
     1601.500000       0.758365
     1601.600000       0.758193
     1601.700000       0.758031
     1601.800000       0.757881
     1601.900000       0.757741
     1602.000000       0.757613
     1602.100000       0.757495
     1602.200000       0.757386
     1602.300000       0.757285
     1602.400000       0.757193
     1602.500000       0.757107
     1602.600000       0.757028
     1602.700000       0.756956
     1602.800000       0.756889
     1602.900000       0.756827
     1603.000000       0.756769
     1603.100000       0.756716
     1603.200000       0.756664
     1603.300000       0.756615
     1603.400000       0.756567
     1603.500000       0.756521
     1603.600000       0.756476
     1603.700000       0.756430
     1603.800000       0.756383
     1603.900000       0.756337
     1604.000000       0.756289
     1604.100000       0.756240
     1604.200000       0.756191
     1604.300000       0.756141
     1604.400000       0.756091
     1604.500000       0.756041
     1604.600000       0.755991
     1604.700000       0.755942
     1604.800000       0.755893
     1604.900000       0.755845
     1605.000000       0.755798
     1605.100000       0.755752
     1605.200000       0.755706
     1605.300000       0.755661
     1605.400000       0.755617
     1605.500000       0.755573
     1605.600000       0.755530
     1605.700000       0.755489
     1605.800000       0.755449
     1605.900000       0.755411
     1606.000000       0.755375
     1606.100000       0.755341
     1606.200000       0.755311
     1606.300000       0.755284
     1606.400000       0.755261
     1606.500000       0.755242
     1606.600000       0.755228
     1606.700000       0.755220
     1606.800000       0.755219
     1606.900000       0.755225
     1607.000000       0.755239
     1607.100000       0.755262
     1607.200000       0.755296
     1607.300000       0.755341
     1607.400000       0.755398
     1607.500000       0.755468
     1607.600000       0.755553
     1607.700000       0.755655
     1607.800000       0.755774
     1607.900000       0.755909
     1608.000000       0.756061
     1608.100000       0.756227
     1608.200000       0.756405
     1608.300000       0.756594
     1608.400000       0.756793
     1608.500000       0.757001
     1608.600000       0.757215
     1608.700000       0.757435
     1608.800000       0.757660
     1608.900000       0.757888
     1609.000000       0.758118
     1609.100000       0.758349
     1609.200000       0.758579
     1609.300000       0.758807
     1609.400000       0.759032
     1609.500000       0.759252
     1609.600000       0.759467
     1609.700000       0.759676
     1609.800000       0.759876
     1609.900000       0.760068
     1610.000000       0.760252
     1610.100000       0.760430
     1610.200000       0.760601
     1610.300000       0.760767
     1610.400000       0.760927
     1610.500000       0.761084
     1610.600000       0.761236
     1610.700000       0.761387
     1610.800000       0.761535
     1610.900000       0.761681
     1611.000000       0.761826
     1611.100000       0.761969
     1611.200000       0.762111
     1611.300000       0.762252
     1611.400000       0.762392
     1611.500000       0.762531
     1611.600000       0.762670
     1611.700000       0.762807
     1611.800000       0.762946
     1611.900000       0.763085
     1612.000000       0.763224
     1612.100000       0.763366
     1612.200000       0.763510
     1612.300000       0.763656
     1612.400000       0.763806
     1612.500000       0.763960
     1612.600000       0.764118
     1612.700000       0.764284
     1612.800000       0.764455
     1612.900000       0.764634
     1613.000000       0.764821
     1613.100000       0.765015
     1613.200000       0.765218
     1613.300000       0.765431
     1613.400000       0.765654
     1613.500000       0.765888
     1613.600000       0.766133
     1613.700000       0.766391
     1613.800000       0.766663
     1613.900000       0.766946
     1614.000000       0.767240
     1614.100000       0.767544
     1614.200000       0.767855
     1614.300000       0.768173
     1614.400000       0.768494
     1614.500000       0.768818
     1614.600000       0.769143
     1614.700000       0.769468
     1614.800000       0.769790
     1614.900000       0.770109
     1615.000000       0.770422
     1615.100000       0.770728
     1615.200000       0.771026
     1615.300000       0.771315
     1615.400000       0.771591
     1615.500000       0.771855
     1615.600000       0.772104
     1615.700000       0.772336
     1615.800000       0.772551
     1615.900000       0.772748
     1616.000000       0.772930
     1616.100000       0.773096
     1616.200000       0.773250
     1616.300000       0.773394
     1616.400000       0.773529
     1616.500000       0.773656
     1616.600000       0.773778
     1616.700000       0.773896
     1616.800000       0.774013
     1616.900000       0.774128
     1617.000000       0.774245
     1617.100000       0.774364
     1617.200000       0.774486
     1617.300000       0.774615
     1617.400000       0.774749
     1617.500000       0.774892
     1617.600000       0.775044
     1617.700000       0.775208
     1617.800000       0.775385
     1617.900000       0.775574
     1618.000000       0.775775
     1618.100000       0.775986
     1618.200000       0.776206
     1618.300000       0.776436
     1618.400000       0.776671
     1618.500000       0.776913
     1618.600000       0.777158
     1618.700000       0.777408
     1618.800000       0.777660
     1618.900000       0.777913
     1619.000000       0.778166
     1619.100000       0.778418
     1619.200000       0.778668
     1619.300000       0.778914
     1619.400000       0.779155
     1619.500000       0.779391
     1619.600000       0.779620
     1619.700000       0.779839
     1619.800000       0.780050
     1619.900000       0.780250
     1620.000000       0.780441
     1620.100000       0.780624
     1620.200000       0.780799
     1620.300000       0.780968
     1620.400000       0.781129
     1620.500000       0.781284
     1620.600000       0.781435
     1620.700000       0.781580
     1620.800000       0.781722
     1620.900000       0.781860
     1621.000000       0.781997
     1621.100000       0.782132
     1621.200000       0.782268
     1621.300000       0.782405
     1621.400000       0.782544
     1621.500000       0.782688
     1621.600000       0.782836
     1621.700000       0.782990
     1621.800000       0.783151
     1621.900000       0.783319
     1622.000000       0.783494
     1622.100000       0.783673
     1622.200000       0.783858
     1622.300000       0.784046
     1622.400000       0.784236
     1622.500000       0.784428
     1622.600000       0.784622
     1622.700000       0.784815
     1622.800000       0.785008
     1622.900000       0.785199
     1623.000000       0.785387
     1623.100000       0.785573
     1623.200000       0.785755
     1623.300000       0.785934
     1623.400000       0.786108
     1623.500000       0.786277
     1623.600000       0.786439
     1623.700000       0.786596
     1623.800000       0.786746
     1623.900000       0.786889
     1624.000000       0.787026
     1624.100000       0.787160
     1624.200000       0.787290
     1624.300000       0.787418
     1624.400000       0.787546
     1624.500000       0.787674
     1624.600000       0.787804
     1624.700000       0.787937
     1624.800000       0.788075
     1624.900000       0.788219
     1625.000000       0.788368
     1625.100000       0.788523
     1625.200000       0.788686
     1625.300000       0.788857
     1625.400000       0.789036
     1625.500000       0.789225
     1625.600000       0.789424
     1625.700000       0.789635
     1625.800000       0.789857
     1625.900000       0.790091
     1626.000000       0.790335
     1626.100000       0.790588
     1626.200000       0.790847
     1626.300000       0.791112
     1626.400000       0.791380
     1626.500000       0.791650
     1626.600000       0.791921
     1626.700000       0.792191
     1626.800000       0.792458
     1626.900000       0.792721
     1627.000000       0.792979
     1627.100000       0.793228
     1627.200000       0.793468
     1627.300000       0.793697
     1627.400000       0.793913
     1627.500000       0.794113
     1627.600000       0.794296
     1627.700000       0.794461
     1627.800000       0.794605
     1627.900000       0.794728
     1628.000000       0.794833
     1628.100000       0.794921
     1628.200000       0.794995
     1628.300000       0.795056
     1628.400000       0.795107
     1628.500000       0.795149
     1628.600000       0.795184
     1628.700000       0.795214
     1628.800000       0.795241
     1628.900000       0.795267
     1629.000000       0.795294
     1629.100000       0.795325
     1629.200000       0.795362
     1629.300000       0.795409
     1629.400000       0.795466
     1629.500000       0.795537
     1629.600000       0.795625
     1629.700000       0.795731
     1629.800000       0.795858
     1629.900000       0.796006
     1630.000000       0.796174
     1630.100000       0.796359
     1630.200000       0.796559
     1630.300000       0.796772
     1630.400000       0.796996
     1630.500000       0.797229
     1630.600000       0.797468
     1630.700000       0.797712
     1630.800000       0.797959
     1630.900000       0.798206
     1631.000000       0.798453
     1631.100000       0.798697
     1631.200000       0.798938
     1631.300000       0.799174
     1631.400000       0.799403
     1631.500000       0.799623
     1631.600000       0.799834
     1631.700000       0.800032
     1631.800000       0.800218
     1631.900000       0.800391
     1632.000000       0.800550
     1632.100000       0.800698
     1632.200000       0.800835
     1632.300000       0.800961
     1632.400000       0.801079
     1632.500000       0.801188
     1632.600000       0.801290
     1632.700000       0.801384
     1632.800000       0.801473
     1632.900000       0.801556
     1633.000000       0.801635
     1633.100000       0.801710
     1633.200000       0.801782
     1633.300000       0.801850
     1633.400000       0.801917
     1633.500000       0.801982
     1633.600000       0.802047
     1633.700000       0.802112
     1633.800000       0.802178
     1633.900000       0.802244
     1634.000000       0.802312
     1634.100000       0.802383
     1634.200000       0.802455
     1634.300000       0.802529
     1634.400000       0.802607
     1634.500000       0.802688
     1634.600000       0.802771
     1634.700000       0.802858
     1634.800000       0.802949
     1634.900000       0.803045
     1635.000000       0.803145
     1635.100000       0.803250
     1635.200000       0.803361
     1635.300000       0.803477
     1635.400000       0.803599
     1635.500000       0.803727
     1635.600000       0.803862
     1635.700000       0.804005
     1635.800000       0.804155
     1635.900000       0.804313
     1636.000000       0.804478
     1636.100000       0.804648
     1636.200000       0.804824
     1636.300000       0.805004
     1636.400000       0.805187
     1636.500000       0.805373
     1636.600000       0.805562
     1636.700000       0.805752
     1636.800000       0.805943
     1636.900000       0.806134
     1637.000000       0.806324
     1637.100000       0.806516
     1637.200000       0.806707
     1637.300000       0.806898
     1637.400000       0.807089
     1637.500000       0.807279
     1637.600000       0.807469
     1637.700000       0.807658
     1637.800000       0.807845
     1637.900000       0.808032
     1638.000000       0.808215
     1638.100000       0.808396
     1638.200000       0.808574
     1638.300000       0.808748
     1638.400000       0.808918
     1638.500000       0.809081
     1638.600000       0.809238
     1638.700000       0.809389
     1638.800000       0.809532
     1638.900000       0.809667
     1639.000000       0.809793
     1639.100000       0.809912
     1639.200000       0.810021
     1639.300000       0.810123
     1639.400000       0.810215
     1639.500000       0.810298
     1639.600000       0.810372
     1639.700000       0.810436
     1639.800000       0.810491
     1639.900000       0.810536
     1640.000000       0.810573
     1640.100000       0.810603
     1640.200000       0.810626
     1640.300000       0.810642
     1640.400000       0.810653
     1640.500000       0.810662
     1640.600000       0.810666
     1640.700000       0.810668
     1640.800000       0.810669
     1640.900000       0.810670
     1641.000000       0.810671
     1641.100000       0.810674
     1641.200000       0.810679
     1641.300000       0.810688
     1641.400000       0.810701
     1641.500000       0.810721
     1641.600000       0.810747
     1641.700000       0.810781
     1641.800000       0.810823
     1641.900000       0.810875
     1642.000000       0.810935
     1642.100000       0.811003
     1642.200000       0.811080
     1642.300000       0.811164
     1642.400000       0.811254
     1642.500000       0.811350
     1642.600000       0.811453
     1642.700000       0.811560
     1642.800000       0.811673
     1642.900000       0.811790
     1643.000000       0.811912
     1643.100000       0.812038
     1643.200000       0.812168
     1643.300000       0.812303
     1643.400000       0.812442
     1643.500000       0.812585
     1643.600000       0.812733
     1643.700000       0.812884
     1643.800000       0.813039
     1643.900000       0.813197
     1644.000000       0.813356
     1644.100000       0.813516
     1644.200000       0.813673
     1644.300000       0.813827
     1644.400000       0.813975
     1644.500000       0.814117
     1644.600000       0.814250
     1644.700000       0.814372
     1644.800000       0.814481
     1644.900000       0.814576
     1645.000000       0.814655
     1645.100000       0.814718
     1645.200000       0.814761
     1645.300000       0.814785
     1645.400000       0.814788
     1645.500000       0.814767
     1645.600000       0.814721
     1645.700000       0.814648
     1645.800000       0.814547
     1645.900000       0.814419
     1646.000000       0.814266
     1646.100000       0.814092
     1646.200000       0.813900
     1646.300000       0.813693
     1646.400000       0.813475
     1646.500000       0.813249
     1646.600000       0.813018
     1646.700000       0.812785
     1646.800000       0.812553
     1646.900000       0.812326
     1647.000000       0.812107
     1647.100000       0.811900
     1647.200000       0.811709
     1647.300000       0.811536
     1647.400000       0.811387
     1647.500000       0.811265
     1647.600000       0.811175
     1647.700000       0.811119
     1647.800000       0.811101
     1647.900000       0.811122
     1648.000000       0.811180
     1648.100000       0.811270
     1648.200000       0.811391
     1648.300000       0.811538
     1648.400000       0.811710
     1648.500000       0.811903
     1648.600000       0.812116
     1648.700000       0.812344
     1648.800000       0.812587
     1648.900000       0.812839
     1649.000000       0.813101
     1649.100000       0.813368
     1649.200000       0.813636
     1649.300000       0.813906
     1649.400000       0.814172
     1649.500000       0.814431
     1649.600000       0.814683
     1649.700000       0.814924
     1649.800000       0.815151
     1649.900000       0.815363
     1650.000000       0.815561
     1650.100000       0.815746
     1650.200000       0.815919
     1650.300000       0.816081
     1650.400000       0.816232
     1650.500000       0.816373
     1650.600000       0.816507
     1650.700000       0.816632
     1650.800000       0.816750
     1650.900000       0.816862
     1651.000000       0.816967
     1651.100000       0.817067
     1651.200000       0.817163
     1651.300000       0.817254
     1651.400000       0.817341
     1651.500000       0.817425
     1651.600000       0.817506
     1651.700000       0.817584
     1651.800000       0.817661
     1651.900000       0.817735
     1652.000000       0.817809
     1652.100000       0.817881
     1652.200000       0.817953
     1652.300000       0.818025
     1652.400000       0.818098
     1652.500000       0.818172
     1652.600000       0.818247
     1652.700000       0.818324
     1652.800000       0.818404
     1652.900000       0.818487
     1653.000000       0.818574
     1653.100000       0.818665
     1653.200000       0.818760
     1653.300000       0.818862
     1653.400000       0.818970
     1653.500000       0.819086
     1653.600000       0.819209
     1653.700000       0.819341
     1653.800000       0.819481
     1653.900000       0.819631
     1654.000000       0.819787
     1654.100000       0.819949
     1654.200000       0.820114
     1654.300000       0.820283
     1654.400000       0.820450
     1654.500000       0.820617
     1654.600000       0.820780
     1654.700000       0.820939
     1654.800000       0.821092
     1654.900000       0.821237
     1655.000000       0.821372
     1655.100000       0.821497
     1655.200000       0.821608
     1655.300000       0.821706
     1655.400000       0.821788
     1655.500000       0.821852
     1655.600000       0.821896
     1655.700000       0.821919
     1655.800000       0.821920
     1655.900000       0.821898
     1656.000000       0.821856
     1656.100000       0.821798
     1656.200000       0.821724
     1656.300000       0.821638
     1656.400000       0.821543
     1656.500000       0.821440
     1656.600000       0.821333
     1656.700000       0.821223
     1656.800000       0.821113
     1656.900000       0.821005
     1657.000000       0.820902
     1657.100000       0.820805
     1657.200000       0.820717
     1657.300000       0.820641
     1657.400000       0.820578
     1657.500000       0.820532
     1657.600000       0.820504
     1657.700000       0.820498
     1657.800000       0.820514
     1657.900000       0.820553
     1658.000000       0.820612
     1658.100000       0.820690
     1658.200000       0.820783
     1658.300000       0.820889
     1658.400000       0.821005
     1658.500000       0.821129
     1658.600000       0.821258
     1658.700000       0.821389
     1658.800000       0.821520
     1658.900000       0.821649
     1659.000000       0.821772
     1659.100000       0.821887
     1659.200000       0.821990
     1659.300000       0.822080
     1659.400000       0.822154
     1659.500000       0.822208
     1659.600000       0.822238
     1659.700000       0.822243
     1659.800000       0.822220
     1659.900000       0.822167
     1660.000000       0.822087
     1660.100000       0.821982
     1660.200000       0.821855
     1660.300000       0.821707
     1660.400000       0.821540
     1660.500000       0.821357
     1660.600000       0.821161
     1660.700000       0.820953
     1660.800000       0.820734
     1660.900000       0.820508
     1661.000000       0.820275
     1661.100000       0.820038
     1661.200000       0.819798
     1661.300000       0.819557
     1661.400000       0.819318
     1661.500000       0.819083
     1661.600000       0.818854
     1661.700000       0.818633
     1661.800000       0.818422
     1661.900000       0.818222
     1662.000000       0.818031
     1662.100000       0.817847
     1662.200000       0.817670
     1662.300000       0.817496
     1662.400000       0.817326
     1662.500000       0.817158
     1662.600000       0.816990
     1662.700000       0.816821
     1662.800000       0.816649
     1662.900000       0.816474
     1663.000000       0.816293
     1663.100000       0.816106
     1663.200000       0.815911
     1663.300000       0.815706
     1663.400000       0.815490
     1663.500000       0.815260
     1663.600000       0.815017
     1663.700000       0.814759
     1663.800000       0.814482
     1663.900000       0.814190
     1664.000000       0.813882
     1664.100000       0.813560
     1664.200000       0.813226
     1664.300000       0.812880
     1664.400000       0.812524
     1664.500000       0.812161
     1664.600000       0.811790
     1664.700000       0.811413
     1664.800000       0.811032
     1664.900000       0.810649
     1665.000000       0.810265
     1665.100000       0.809881
     1665.200000       0.809499
     1665.300000       0.809121
     1665.400000       0.808747
     1665.500000       0.808380
     1665.600000       0.808020
     1665.700000       0.807668
     1665.800000       0.807327
     1665.900000       0.806996
     1666.000000       0.806673
     1666.100000       0.806355
     1666.200000       0.806041
     1666.300000       0.805727
     1666.400000       0.805413
     1666.500000       0.805095
     1666.600000       0.804771
     1666.700000       0.804439
     1666.800000       0.804095
     1666.900000       0.803739
     1667.000000       0.803368
     1667.100000       0.802981
     1667.200000       0.802574
     1667.300000       0.802146
     1667.400000       0.801696
     1667.500000       0.801221
     1667.600000       0.800718
     1667.700000       0.800186
     1667.800000       0.799622
     1667.900000       0.799027
     1668.000000       0.798404
     1668.100000       0.797755
     1668.200000       0.797084
     1668.300000       0.796393
     1668.400000       0.795688
     1668.500000       0.794971
     1668.600000       0.794243
     1668.700000       0.793509
     1668.800000       0.792770
     1668.900000       0.792031
     1669.000000       0.791294
     1669.100000       0.790560
     1669.200000       0.789833
     1669.300000       0.789117
     1669.400000       0.788415
     1669.500000       0.787731
     1669.600000       0.787070
     1669.700000       0.786434
     1669.800000       0.785826
     1669.900000       0.785247
     1670.000000       0.784693
     1670.100000       0.784160
     1670.200000       0.783644
     1670.300000       0.783139
     1670.400000       0.782643
     1670.500000       0.782150
     1670.600000       0.781655
     1670.700000       0.781155
     1670.800000       0.780644
     1670.900000       0.780118
     1671.000000       0.779572
     1671.100000       0.779001
     1671.200000       0.778401
     1671.300000       0.777767
     1671.400000       0.777092
     1671.500000       0.776375
     1671.600000       0.775609
     1671.700000       0.774792
     1671.800000       0.773917
     1671.900000       0.772988
     1672.000000       0.772007
     1672.100000       0.770979
     1672.200000       0.769911
     1672.300000       0.768804
     1672.400000       0.767665
     1672.500000       0.766499
     1672.600000       0.765310
     1672.700000       0.764101
     1672.800000       0.762876
     1672.900000       0.761642
     1673.000000       0.760402
     1673.100000       0.759161
     1673.200000       0.757921
     1673.300000       0.756686
     1673.400000       0.755463
     1673.500000       0.754254
     1673.600000       0.753063
     1673.700000       0.751894
     1673.800000       0.750750
     1673.900000       0.749635
     1674.000000       0.748544
     1674.100000       0.747474
     1674.200000       0.746422
     1674.300000       0.745384
     1674.400000       0.744358
     1674.500000       0.743340
     1674.600000       0.742327
     1674.700000       0.741316
     1674.800000       0.740301
     1674.900000       0.739285
     1675.000000       0.738261
     1675.100000       0.737229
     1675.200000       0.736185
     1675.300000       0.735127
     1675.400000       0.734052
     1675.500000       0.732959
     1675.600000       0.731844
     1675.700000       0.730704
     1675.800000       0.729535
     1675.900000       0.728340
     1676.000000       0.727117
     1676.100000       0.725869
     1676.200000       0.724598
     1676.300000       0.723304
     1676.400000       0.721990
     1676.500000       0.720658
     1676.600000       0.719308
     1676.700000       0.717940
     1676.800000       0.716556
     1676.900000       0.715158
     1677.000000       0.713746
     1677.100000       0.712322
     1677.200000       0.710886
     1677.300000       0.709438
     1677.400000       0.707982
     1677.500000       0.706519
     1677.600000       0.705047
     1677.700000       0.703569
     1677.800000       0.702084
     1677.900000       0.700594
     1678.000000       0.699100
     1678.100000       0.697602
     1678.200000       0.696101
     1678.300000       0.694595
     1678.400000       0.693091
     1678.500000       0.691588
     1678.600000       0.690087
     1678.700000       0.688587
     1678.800000       0.687090
     1678.900000       0.685600
     1679.000000       0.684117
     1679.100000       0.682642
     1679.200000       0.681175
     1679.300000       0.679715
     1679.400000       0.678265
     1679.500000       0.676822
     1679.600000       0.675387
     1679.700000       0.673960
     1679.800000       0.672537
     1679.900000       0.671124
     1680.000000       0.669718
     1680.100000       0.668318
     1680.200000       0.666925
     1680.300000       0.665537
     1680.400000       0.664157
     1680.500000       0.662781
     1680.600000       0.661409
     1680.700000       0.660040
     1680.800000       0.658671
     1680.900000       0.657304
     1681.000000       0.655937
     1681.100000       0.654568
     1681.200000       0.653198
     1681.300000       0.651823
     1681.400000       0.650447
     1681.500000       0.649065
     1681.600000       0.647680
     1681.700000       0.646289
     1681.800000       0.644890
     1681.900000       0.643487
     1682.000000       0.642077
     1682.100000       0.640659
     1682.200000       0.639233
     1682.300000       0.637796
     1682.400000       0.636352
     1682.500000       0.634897
     1682.600000       0.633432
     1682.700000       0.631955
     1682.800000       0.630466
     1682.900000       0.628968
     1683.000000       0.627460
     1683.100000       0.625945
     1683.200000       0.624420
     1683.300000       0.622885
     1683.400000       0.621345
     1683.500000       0.619799
     1683.600000       0.618246
     1683.700000       0.616688
     1683.800000       0.615121
     1683.900000       0.613553
     1684.000000       0.611981
     1684.100000       0.610406
     1684.200000       0.608830
     1684.300000       0.607251
     1684.400000       0.605672
     1684.500000       0.604093
     1684.600000       0.602515
     1684.700000       0.600937
     1684.800000       0.599359
     1684.900000       0.597785
     1685.000000       0.596213
     1685.100000       0.594645
     1685.200000       0.593081
     1685.300000       0.591521
     1685.400000       0.589967
     1685.500000       0.588421
     1685.600000       0.586883
     1685.700000       0.585353
     1685.800000       0.583832
     1685.900000       0.582321
     1686.000000       0.580817
     1686.100000       0.579318
     1686.200000       0.577824
     1686.300000       0.576329
     1686.400000       0.574836
     1686.500000       0.573341
     1686.600000       0.571842
     1686.700000       0.570338
     1686.800000       0.568823
     1686.900000       0.567301
     1687.000000       0.565769
     1687.100000       0.564224
     1687.200000       0.562665
     1687.300000       0.561088
     1687.400000       0.559496
     1687.500000       0.557884
     1687.600000       0.556252
     1687.700000       0.554597
     1687.800000       0.552917
     1687.900000       0.551214
     1688.000000       0.549489
     1688.100000       0.547745
     1688.200000       0.545984
     1688.300000       0.544205
     1688.400000       0.542415
     1688.500000       0.540616
     1688.600000       0.538808
     1688.700000       0.536994
     1688.800000       0.535174
     1688.900000       0.533356
     1689.000000       0.531537
     1689.100000       0.529721
     1689.200000       0.527910
     1689.300000       0.526102
     1689.400000       0.524307
     1689.500000       0.522521
     1689.600000       0.520747
     1689.700000       0.518988
     1689.800000       0.517244
     1689.900000       0.515517
     1690.000000       0.513805
     1690.100000       0.512108
     1690.200000       0.510422
     1690.300000       0.508745
     1690.400000       0.507080
     1690.500000       0.505424
     1690.600000       0.503775
     1690.700000       0.502133
     1690.800000       0.500494
     1690.900000       0.498860
     1691.000000       0.497230
     1691.100000       0.495601
     1691.200000       0.493972
     1691.300000       0.492339
     1691.400000       0.490704
     1691.500000       0.489064
     1691.600000       0.487418
     1691.700000       0.485762
     1691.800000       0.484095
     1691.900000       0.482418
     1692.000000       0.480727
     1692.100000       0.479023
     1692.200000       0.477301
     1692.300000       0.475562
     1692.400000       0.473806
     1692.500000       0.472031
     1692.600000       0.470238
     1692.700000       0.468422
     1692.800000       0.466583
     1692.900000       0.464722
     1693.000000       0.462835
     1693.100000       0.460923
     1693.200000       0.458982
     1693.300000       0.457009
     1693.400000       0.455010
     1693.500000       0.452981
     1693.600000       0.450922
     1693.700000       0.448833
     1693.800000       0.446711
     1693.900000       0.444559
     1694.000000       0.442376
     1694.100000       0.440161
     1694.200000       0.437918
     1694.300000       0.435647
     1694.400000       0.433357
     1694.500000       0.431052
     1694.600000       0.428735
     1694.700000       0.426410
     1694.800000       0.424079
     1694.900000       0.421750
     1695.000000       0.419426
     1695.100000       0.417109
     1695.200000       0.414801
     1695.300000       0.412501
     1695.400000       0.410219
     1695.500000       0.407954
     1695.600000       0.405708
     1695.700000       0.403485
     1695.800000       0.401285
     1695.900000       0.399114
     1696.000000       0.396973
     1696.100000       0.394861
     1696.200000       0.392782
     1696.300000       0.390734
     1696.400000       0.388724
     1696.500000       0.386749
     1696.600000       0.384808
     1696.700000       0.382899
     1696.800000       0.381021
     1696.900000       0.379177
     1697.000000       0.377365
     1697.100000       0.375583
     1697.200000       0.373829
     1697.300000       0.372101
     1697.400000       0.370400
     1697.500000       0.368723
     1697.600000       0.367068
     1697.700000       0.365433
     1697.800000       0.363814
     1697.900000       0.362210
     1698.000000       0.360619
     1698.100000       0.359039
     1698.200000       0.357470
     1698.300000       0.355907
     1698.400000       0.354351
     1698.500000       0.352798
     1698.600000       0.351244
     1698.700000       0.349687
     1698.800000       0.348123
     1698.900000       0.346554
     1699.000000       0.344980
     1699.100000       0.343401
     1699.200000       0.341816
     1699.300000       0.340223
     1699.400000       0.338627
     1699.500000       0.337031
     1699.600000       0.335439
     1699.700000       0.333858
     1699.800000       0.332293
     1699.900000       0.330752
     1700.000000       0.329240
     1700.100000       0.327759
     1700.200000       0.326308
     1700.300000       0.324881
     1700.400000       0.323480
     1700.500000       0.322101
     1700.600000       0.320740
     1700.700000       0.319394
     1700.800000       0.318061
     1700.900000       0.316740
     1701.000000       0.315428
     1701.100000       0.314123
     1701.200000       0.312822
     1701.300000       0.311523
     1701.400000       0.310225
     1701.500000       0.308927
     1701.600000       0.307625
     1701.700000       0.306318
     1701.800000       0.305003
     1701.900000       0.303683
     1702.000000       0.302354
     1702.100000       0.301016
     1702.200000       0.299668
     1702.300000       0.298306
     1702.400000       0.296934
     1702.500000       0.295549
     1702.600000       0.294152
     1702.700000       0.292745
     1702.800000       0.291324
     1702.900000       0.289895
     1703.000000       0.288456
     1703.100000       0.287007
     1703.200000       0.285548
     1703.300000       0.284079
     1703.400000       0.282604
     1703.500000       0.281122
     1703.600000       0.279635
     1703.700000       0.278143
     1703.800000       0.276645
     1703.900000       0.275145
     1704.000000       0.273644
     1704.100000       0.272139
     1704.200000       0.270632
     1704.300000       0.269122
     1704.400000       0.267612
     1704.500000       0.266099
     1704.600000       0.264585
     1704.700000       0.263069
     1704.800000       0.261550
     1704.900000       0.260031
     1705.000000       0.258512
     1705.100000       0.256991
     1705.200000       0.255470
     1705.300000       0.253948
     1705.400000       0.252428
     1705.500000       0.250909
     1705.600000       0.249391
     1705.700000       0.247876
     1705.800000       0.246361
     1705.900000       0.244850
     1706.000000       0.243342
     1706.100000       0.241835
     1706.200000       0.240331
     1706.300000       0.238827
     1706.400000       0.237326
     1706.500000       0.235828
     1706.600000       0.234332
     1706.700000       0.232838
     1706.800000       0.231343
     1706.900000       0.229851
     1707.000000       0.228360
     1707.100000       0.226870
     1707.200000       0.225380
     1707.300000       0.223887
     1707.400000       0.222396
     1707.500000       0.220904
     1707.600000       0.219411
     1707.700000       0.217916
     1707.800000       0.216418
     1707.900000       0.214919
     1708.000000       0.213418
     1708.100000       0.211913
     1708.200000       0.210404
     1708.300000       0.208889
     1708.400000       0.207372
     1708.500000       0.205848
     1708.600000       0.204318
     1708.700000       0.202781
     1708.800000       0.201234
     1708.900000       0.199680
     1709.000000       0.198117
     1709.100000       0.196542
     1709.200000       0.194955
     1709.300000       0.193355
     1709.400000       0.191746
     1709.500000       0.190128
     1709.600000       0.188501
     1709.700000       0.186867
     1709.800000       0.185225
     1709.900000       0.183579
     1710.000000       0.181929
     1710.100000       0.180276
     1710.200000       0.178619
     1710.300000       0.176958
     1710.400000       0.175298
     1710.500000       0.173636
     1710.600000       0.171973
     1710.700000       0.170311
     1710.800000       0.168645
     1710.900000       0.166983
     1711.000000       0.165322
     1711.100000       0.163660
     1711.200000       0.161998
     1711.300000       0.160334
     1711.400000       0.158671
     1711.500000       0.157007
     1711.600000       0.155342
     1711.700000       0.153674
     1711.800000       0.152002
     1711.900000       0.150331
     1712.000000       0.148660
     1712.100000       0.146988
     1712.200000       0.145318
     1712.300000       0.143647
     1712.400000       0.141982
     1712.500000       0.140319
     1712.600000       0.138661
     1712.700000       0.137007
     1712.800000       0.135355
     1712.900000       0.133711
     1713.000000       0.132071
     1713.100000       0.130436
     1713.200000       0.128805
     1713.300000       0.127179
     1713.400000       0.125559
     1713.500000       0.123948
     1713.600000       0.122343
     1713.700000       0.120746
     1713.800000       0.119158
     1713.900000       0.117583
     1714.000000       0.116021
     1714.100000       0.114473
     1714.200000       0.112940
     1714.300000       0.111420
     1714.400000       0.109918
     1714.500000       0.108432
     1714.600000       0.106961
     1714.700000       0.105506
     1714.800000       0.104066
     1714.900000       0.102644
     1715.000000       0.101239
     1715.100000       0.099852
     1715.200000       0.098483
     1715.300000       0.097130
     1715.400000       0.095796
     1715.500000       0.094480
     1715.600000       0.093184
     1715.700000       0.091907
     1715.800000       0.090649
     1715.900000       0.089413
     1716.000000       0.088197
     1716.100000       0.087002
     1716.200000       0.085827
     1716.300000       0.084670
     1716.400000       0.083534
     1716.500000       0.082418
     1716.600000       0.081323
     1716.700000       0.080248
     1716.800000       0.079193
     1716.900000       0.078159
     1717.000000       0.077145
     1717.100000       0.076147
     1717.200000       0.075165
     1717.300000       0.074198
     1717.400000       0.073245
     1717.500000       0.072306
     1717.600000       0.071379
     1717.700000       0.070463
     1717.800000       0.069558
     1717.900000       0.068664
     1718.000000       0.067781
     1718.100000       0.066910
     1718.200000       0.066049
     1718.300000       0.065199
     1718.400000       0.064361
     1718.500000       0.063535
     1718.600000       0.062722
     1718.700000       0.061922
     1718.800000       0.061134
     1718.900000       0.060360
     1719.000000       0.059598
     1719.100000       0.058846
     1719.200000       0.058106
     1719.300000       0.057374
     1719.400000       0.056654
     1719.500000       0.055943
     1719.600000       0.055241
     1719.700000       0.054547
     1719.800000       0.053862
     1719.900000       0.053186
     1720.000000       0.052518
     1720.100000       0.051857
     1720.200000       0.051204
     1720.300000       0.050556
     1720.400000       0.049917
     1720.500000       0.049285
     1720.600000       0.048659
     1720.700000       0.048040
     1720.800000       0.047427
     1720.900000       0.046821
     1721.000000       0.046222
     1721.100000       0.045630
     1721.200000       0.045044
     1721.300000       0.044463
     1721.400000       0.043889
     1721.500000       0.043322
     1721.600000       0.042761
     1721.700000       0.042206
     1721.800000       0.041658
     1721.900000       0.041118
     1722.000000       0.040584
     1722.100000       0.040058
     1722.200000       0.039540
     1722.300000       0.039027
     1722.400000       0.038521
     1722.500000       0.038022
     1722.600000       0.037530
     1722.700000       0.037044
     1722.800000       0.036564
     1722.900000       0.036091
     1723.000000       0.035624
     1723.100000       0.035165
     1723.200000       0.034712
     1723.300000       0.034266
     1723.400000       0.033827
     1723.500000       0.033394
     1723.600000       0.032968
     1723.700000       0.032548
     1723.800000       0.032133
     1723.900000       0.031726
     1724.000000       0.031324
     1724.100000       0.030929
     1724.200000       0.030540
     1724.300000       0.030158
     1724.400000       0.029783
     1724.500000       0.029414
     1724.600000       0.029052
     1724.700000       0.028696
     1724.800000       0.028345
     1724.900000       0.028001
     1725.000000       0.027662
     1725.100000       0.027330
     1725.200000       0.027003
     1725.300000       0.026682
     1725.400000       0.026367
     1725.500000       0.026058
     1725.600000       0.025755
     1725.700000       0.025458
     1725.800000       0.025167
     1725.900000       0.024882
     1726.000000       0.024601
     1726.100000       0.024326
     1726.200000       0.024055
     1726.300000       0.023789
     1726.400000       0.023527
     1726.500000       0.023269
     1726.600000       0.023015
     1726.700000       0.022766
     1726.800000       0.022520
     1726.900000       0.022278
     1727.000000       0.022039
     1727.100000       0.021805
     1727.200000       0.021573
     1727.300000       0.021344
     1727.400000       0.021117
     1727.500000       0.020894
     1727.600000       0.020673
     1727.700000       0.020455
     1727.800000       0.020238
     1727.900000       0.020025
     1728.000000       0.019814
     1728.100000       0.019605
     1728.200000       0.019398
     1728.300000       0.019194
     1728.400000       0.018991
     1728.500000       0.018791
     1728.600000       0.018592
     1728.700000       0.018394
     1728.800000       0.018197
     1728.900000       0.018002
     1729.000000       0.017807
     1729.100000       0.017614
     1729.200000       0.017421
     1729.300000       0.017228
     1729.400000       0.017037
     1729.500000       0.016846
     1729.600000       0.016656
     1729.700000       0.016468
     1729.800000       0.016280
     1729.900000       0.016094
     1730.000000       0.015910
     1730.100000       0.015727
     1730.200000       0.015545
     1730.300000       0.015365
     1730.400000       0.015188
     1730.500000       0.015012
     1730.600000       0.014838
     1730.700000       0.014666
     1730.800000       0.014495
     1730.900000       0.014326
     1731.000000       0.014158
     1731.100000       0.013992
     1731.200000       0.013827
     1731.300000       0.013663
     1731.400000       0.013501
     1731.500000       0.013340
     1731.600000       0.013180
     1731.700000       0.013021
     1731.800000       0.012863
     1731.900000       0.012707
     1732.000000       0.012552
     1732.100000       0.012398
     1732.200000       0.012245
     1732.300000       0.012093
     1732.400000       0.011943
     1732.500000       0.011794
     1732.600000       0.011647
     1732.700000       0.011501
     1732.800000       0.011357
     1732.900000       0.011214
     1733.000000       0.011074
     1733.100000       0.010935
     1733.200000       0.010797
     1733.300000       0.010661
     1733.400000       0.010527
     1733.500000       0.010394
     1733.600000       0.010263
     1733.700000       0.010134
     1733.800000       0.010006
     1733.900000       0.009880
     1734.000000       0.009756
     1734.100000       0.009633
     1734.200000       0.009513
     1734.300000       0.009394
     1734.400000       0.009276
     1734.500000       0.009161
     1734.600000       0.009047
     1734.700000       0.008935
     1734.800000       0.008824
     1734.900000       0.008715
     1735.000000       0.008608
     1735.100000       0.008503
     1735.200000       0.008400
     1735.300000       0.008298
     1735.400000       0.008198
     1735.500000       0.008101
     1735.600000       0.008005
     1735.700000       0.007910
     1735.800000       0.007817
     1735.900000       0.007726
     1736.000000       0.007635
     1736.100000       0.007547
     1736.200000       0.007459
     1736.300000       0.007372
     1736.400000       0.007287
     1736.500000       0.007203
     1736.600000       0.007120
     1736.700000       0.007038
     1736.800000       0.006957
     1736.900000       0.006877
     1737.000000       0.006798
     1737.100000       0.006719
     1737.200000       0.006642
     1737.300000       0.006565
     1737.400000       0.006490
     1737.500000       0.006415
     1737.600000       0.006341
     1737.700000       0.006267
     1737.800000       0.006195
     1737.900000       0.006123
     1738.000000       0.006052
     1738.100000       0.005982
     1738.200000       0.005913
     1738.300000       0.005844
     1738.400000       0.005776
     1738.500000       0.005708
     1738.600000       0.005642
     1738.700000       0.005575
     1738.800000       0.005510
     1738.900000       0.005445
     1739.000000       0.005381
     1739.100000       0.005317
     1739.200000       0.005254
     1739.300000       0.005192
     1739.400000       0.005130
     1739.500000       0.005069
     1739.600000       0.005009
     1739.700000       0.004949
     1739.800000       0.004890
     1739.900000       0.004831
     1740.000000       0.004773
     1740.100000       0.004716
     1740.200000       0.004660
     1740.300000       0.004604
     1740.400000       0.004549
     1740.500000       0.004495
     1740.600000       0.004442
     1740.700000       0.004390
     1740.800000       0.004338
     1740.900000       0.004287
     1741.000000       0.004237
     1741.100000       0.004188
     1741.200000       0.004140
     1741.300000       0.004092
     1741.400000       0.004045
     1741.500000       0.004000
     1741.600000       0.003955
     1741.700000       0.003911
     1741.800000       0.003868
     1741.900000       0.003826
     1742.000000       0.003785
     1742.100000       0.003744
     1742.200000       0.003705
     1742.300000       0.003666
     1742.400000       0.003628
     1742.500000       0.003591
     1742.600000       0.003555
     1742.700000       0.003520
     1742.800000       0.003485
     1742.900000       0.003452
     1743.000000       0.003419
     1743.100000       0.003387
     1743.200000       0.003355
     1743.300000       0.003324
     1743.400000       0.003294
     1743.500000       0.003264
     1743.600000       0.003235
     1743.700000       0.003207
     1743.800000       0.003179
     1743.900000       0.003152
     1744.000000       0.003125
     1744.100000       0.003099
     1744.200000       0.003073
     1744.300000       0.003047
     1744.400000       0.003022
     1744.500000       0.002998
     1744.600000       0.002974
     1744.700000       0.002950
     1744.800000       0.002927
     1744.900000       0.002904
     1745.000000       0.002881
     1745.100000       0.002859
     1745.200000       0.002837
     1745.300000       0.002815
     1745.400000       0.002794
     1745.500000       0.002773
     1745.600000       0.002753
     1745.700000       0.002732
     1745.800000       0.002712
     1745.900000       0.002693
     1746.000000       0.002674
     1746.100000       0.002655
     1746.200000       0.002636
     1746.300000       0.002618
     1746.400000       0.002600
     1746.500000       0.002583
     1746.600000       0.002566
     1746.700000       0.002549
     1746.800000       0.002532
     1746.900000       0.002516
     1747.000000       0.002500
     1747.100000       0.002484
     1747.200000       0.002468
     1747.300000       0.002452
     1747.400000       0.002437
     1747.500000       0.002421
     1747.600000       0.002406
     1747.700000       0.002391
     1747.800000       0.002376
     1747.900000       0.002361
     1748.000000       0.002346
     1748.100000       0.002331
     1748.200000       0.002316
     1748.300000       0.002301
     1748.400000       0.002285
     1748.500000       0.002270
     1748.600000       0.002254
     1748.700000       0.002238
     1748.800000       0.002222
     1748.900000       0.002206
     1749.000000       0.002190
     1749.100000       0.002173
     1749.200000       0.002156
     1749.300000       0.002139
     1749.400000       0.002122
     1749.500000       0.002105
     1749.600000       0.002088
     1749.700000       0.002071
     1749.800000       0.002053
     1749.900000       0.002036
     1750.000000       0.002019
     1750.100000       0.002001
     1750.200000       0.001984
     1750.300000       0.001966
     1750.400000       0.001949
     1750.500000       0.001932
     1750.600000       0.001914
     1750.700000       0.001897
     1750.800000       0.001880
     1750.900000       0.001862
     1751.000000       0.001845
     1751.100000       0.001828
     1751.200000       0.001810
     1751.300000       0.001793
     1751.400000       0.001776
     1751.500000       0.001759
     1751.600000       0.001742
     1751.700000       0.001725
     1751.800000       0.001708
     1751.900000       0.001690
     1752.000000       0.001674
     1752.100000       0.001657
     1752.200000       0.001640
     1752.300000       0.001623
     1752.400000       0.001606
     1752.500000       0.001589
     1752.600000       0.001573
     1752.700000       0.001556
     1752.800000       0.001539
     1752.900000       0.001523
     1753.000000       0.001506
     1753.100000       0.001489
     1753.200000       0.001472
     1753.300000       0.001456
     1753.400000       0.001439
     1753.500000       0.001422
     1753.600000       0.001405
     1753.700000       0.001388
     1753.800000       0.001371
     1753.900000       0.001354
     1754.000000       0.001337
     1754.100000       0.001319
     1754.200000       0.001302
     1754.300000       0.001285
     1754.400000       0.001268
     1754.500000       0.001251
     1754.600000       0.001234
     1754.700000       0.001217
     1754.800000       0.001201
     1754.900000       0.001184
     1755.000000       0.001167
     1755.100000       0.001151
     1755.200000       0.001134
     1755.300000       0.001118
     1755.400000       0.001102
     1755.500000       0.001085
     1755.600000       0.001069
     1755.700000       0.001053
     1755.800000       0.001037
     1755.900000       0.001021
     1756.000000       0.001005
     1756.100000       0.000990
     1756.200000       0.000974
     1756.300000       0.000959
     1756.400000       0.000943
     1756.500000       0.000928
     1756.600000       0.000913
     1756.700000       0.000898
     1756.800000       0.000883
     1756.900000       0.000868
     1757.000000       0.000853
     1757.100000       0.000839
     1757.200000       0.000824
     1757.300000       0.000810
     1757.400000       0.000796
     1757.500000       0.000782
     1757.600000       0.000768
     1757.700000       0.000755
     1757.800000       0.000742
     1757.900000       0.000729
     1758.000000       0.000716
     1758.100000       0.000703
     1758.200000       0.000691
     1758.300000       0.000678
     1758.400000       0.000666
     1758.500000       0.000655
     1758.600000       0.000643
     1758.700000       0.000632
     1758.800000       0.000621
     1758.900000       0.000610
     1759.000000       0.000600
     1759.100000       0.000589
     1759.200000       0.000579
     1759.300000       0.000569
     1759.400000       0.000559
     1759.500000       0.000549
     1759.600000       0.000540
     1759.700000       0.000530
     1759.800000       0.000521
     1759.900000       0.000512
     1760.000000       0.000503
     1760.100000       0.000495
     1760.200000       0.000486
     1760.300000       0.000477
     1760.400000       0.000469
     1760.500000       0.000461
     1760.600000       0.000452
     1760.700000       0.000444
     1760.800000       0.000436
     1760.900000       0.000428
     1761.000000       0.000420
     1761.100000       0.000412
     1761.200000       0.000405
     1761.300000       0.000397
     1761.400000       0.000389
     1761.500000       0.000382
     1761.600000       0.000375
     1761.700000       0.000367
     1761.800000       0.000360
     1761.900000       0.000354
     1762.000000       0.000347
     1762.100000       0.000340
     1762.200000       0.000334
     1762.300000       0.000328
     1762.400000       0.000322
     1762.500000       0.000316
     1762.600000       0.000310
     1762.700000       0.000305
     1762.800000       0.000299
     1762.900000       0.000294
     1763.000000       0.000289
     1763.100000       0.000284
     1763.200000       0.000279
     1763.300000       0.000275
     1763.400000       0.000270
     1763.500000       0.000266
     1763.600000       0.000262
     1763.700000       0.000258
     1763.800000       0.000254
     1763.900000       0.000250
     1764.000000       0.000246
     1764.100000       0.000242
     1764.200000       0.000239
     1764.300000       0.000235
     1764.400000       0.000231
     1764.500000       0.000228
     1764.600000       0.000224
     1764.700000       0.000220
     1764.800000       0.000217
     1764.900000       0.000213
     1765.000000       0.000210
     1765.100000       0.000206
     1765.200000       0.000203
     1765.300000       0.000199
     1765.400000       0.000195
     1765.500000       0.000192
     1765.600000       0.000188
     1765.700000       0.000185
     1765.800000       0.000181
     1765.900000       0.000177
     1766.000000       0.000174
     1766.100000       0.000170
     1766.200000       0.000167
     1766.300000       0.000163
     1766.400000       0.000160
     1766.500000       0.000156
     1766.600000       0.000153
     1766.700000       0.000150
     1766.800000       0.000147
     1766.900000       0.000144
     1767.000000       0.000142
     1767.100000       0.000139
     1767.200000       0.000137
     1767.300000       0.000134
     1767.400000       0.000132
     1767.500000       0.000130
     1767.600000       0.000128
     1767.700000       0.000126
     1767.800000       0.000124
     1767.900000       0.000121
     1768.000000       0.000119
     1768.100000       0.000117
     1768.200000       0.000115
     1768.300000       0.000112
     1768.400000       0.000110
     1768.500000       0.000107
     1768.600000       0.000105
     1768.700000       0.000102
     1768.800000       0.000100
     1768.900000       0.000097
     1769.000000       0.000094
     1769.100000       0.000091
     1769.200000       0.000088
     1769.300000       0.000085
     1769.400000       0.000083
     1769.500000       0.000079
     1769.600000       0.000076
     1769.700000       0.000073
     1769.800000       0.000070
     1769.900000       0.000067
     1770.000000       0.000064
