8, channel 8 SRF extracted from AHI-9_SpectralResponsivity_Data.xlsx (release Oct 2013)
Number of data points:
4201
Wavenumber (cm-1)   Filter response
     1421.000000       0.000427
     1421.100000       0.000400
     1421.200000       0.000374
     1421.300000       0.000353
     1421.400000       0.000335
     1421.500000       0.000328
     1421.600000       0.000326
     1421.700000       0.000327
     1421.800000       0.000341
     1421.900000       0.000359
     1422.000000       0.000384
     1422.100000       0.000411
     1422.200000       0.000441
     1422.300000       0.000470
     1422.400000       0.000497
     1422.500000       0.000519
     1422.600000       0.000539
     1422.700000       0.000545
     1422.800000       0.000545
     1422.900000       0.000545
     1423.000000       0.000531
     1423.100000       0.000510
     1423.200000       0.000484
     1423.300000       0.000455
     1423.400000       0.000425
     1423.500000       0.000396
     1423.600000       0.000370
     1423.700000       0.000348
     1423.800000       0.000331
     1423.900000       0.000324
     1424.000000       0.000324
     1424.100000       0.000326
     1424.200000       0.000337
     1424.300000       0.000355
     1424.400000       0.000375
     1424.500000       0.000397
     1424.600000       0.000419
     1424.700000       0.000439
     1424.800000       0.000456
     1424.900000       0.000466
     1425.000000       0.000466
     1425.100000       0.000465
     1425.200000       0.000458
     1425.300000       0.000441
     1425.400000       0.000422
     1425.500000       0.000399
     1425.600000       0.000375
     1425.700000       0.000352
     1425.800000       0.000332
     1425.900000       0.000315
     1426.000000       0.000307
     1426.100000       0.000302
     1426.200000       0.000305
     1426.300000       0.000316
     1426.400000       0.000331
     1426.500000       0.000355
     1426.600000       0.000382
     1426.700000       0.000411
     1426.800000       0.000440
     1426.900000       0.000468
     1427.000000       0.000493
     1427.100000       0.000511
     1427.200000       0.000518
     1427.300000       0.000521
     1427.400000       0.000519
     1427.500000       0.000502
     1427.600000       0.000481
     1427.700000       0.000451
     1427.800000       0.000417
     1427.900000       0.000379
     1428.000000       0.000342
     1428.100000       0.000305
     1428.200000       0.000274
     1428.300000       0.000247
     1428.400000       0.000229
     1428.500000       0.000217
     1428.600000       0.000214
     1428.700000       0.000219
     1428.800000       0.000229
     1428.900000       0.000247
     1429.000000       0.000268
     1429.100000       0.000293
     1429.200000       0.000317
     1429.300000       0.000341
     1429.400000       0.000361
     1429.500000       0.000378
     1429.600000       0.000384
     1429.700000       0.000383
     1429.800000       0.000382
     1429.900000       0.000371
     1430.000000       0.000354
     1430.100000       0.000334
     1430.200000       0.000313
     1430.300000       0.000292
     1430.400000       0.000273
     1430.500000       0.000258
     1430.600000       0.000248
     1430.700000       0.000248
     1430.800000       0.000248
     1430.900000       0.000255
     1431.000000       0.000271
     1431.100000       0.000292
     1431.200000       0.000316
     1431.300000       0.000341
     1431.400000       0.000367
     1431.500000       0.000391
     1431.600000       0.000411
     1431.700000       0.000425
     1431.800000       0.000434
     1431.900000       0.000434
     1432.000000       0.000428
     1432.100000       0.000417
     1432.200000       0.000398
     1432.300000       0.000377
     1432.400000       0.000351
     1432.500000       0.000326
     1432.600000       0.000301
     1432.700000       0.000280
     1432.800000       0.000262
     1432.900000       0.000256
     1433.000000       0.000254
     1433.100000       0.000254
     1433.200000       0.000265
     1433.300000       0.000284
     1433.400000       0.000308
     1433.500000       0.000334
     1433.600000       0.000363
     1433.700000       0.000392
     1433.800000       0.000418
     1433.900000       0.000440
     1434.000000       0.000457
     1434.100000       0.000465
     1434.200000       0.000464
     1434.300000       0.000459
     1434.400000       0.000446
     1434.500000       0.000423
     1434.600000       0.000397
     1434.700000       0.000365
     1434.800000       0.000334
     1434.900000       0.000303
     1435.000000       0.000277
     1435.100000       0.000254
     1435.200000       0.000241
     1435.300000       0.000232
     1435.400000       0.000233
     1435.500000       0.000242
     1435.600000       0.000258
     1435.700000       0.000282
     1435.800000       0.000310
     1435.900000       0.000342
     1436.000000       0.000374
     1436.100000       0.000406
     1436.200000       0.000433
     1436.300000       0.000457
     1436.400000       0.000472
     1436.500000       0.000481
     1436.600000       0.000483
     1436.700000       0.000477
     1436.800000       0.000467
     1436.900000       0.000451
     1437.000000       0.000433
     1437.100000       0.000414
     1437.200000       0.000396
     1437.300000       0.000380
     1437.400000       0.000371
     1437.500000       0.000369
     1437.600000       0.000368
     1437.700000       0.000374
     1437.800000       0.000390
     1437.900000       0.000409
     1438.000000       0.000433
     1438.100000       0.000459
     1438.200000       0.000486
     1438.300000       0.000512
     1438.400000       0.000534
     1438.500000       0.000551
     1438.600000       0.000562
     1438.700000       0.000563
     1438.800000       0.000558
     1438.900000       0.000548
     1439.000000       0.000528
     1439.100000       0.000505
     1439.200000       0.000478
     1439.300000       0.000450
     1439.400000       0.000423
     1439.500000       0.000401
     1439.600000       0.000381
     1439.700000       0.000373
     1439.800000       0.000373
     1439.900000       0.000373
     1440.000000       0.000386
     1440.100000       0.000408
     1440.200000       0.000436
     1440.300000       0.000468
     1440.400000       0.000503
     1440.500000       0.000539
     1440.600000       0.000572
     1440.700000       0.000601
     1440.800000       0.000622
     1440.900000       0.000636
     1441.000000       0.000636
     1441.100000       0.000631
     1441.200000       0.000620
     1441.300000       0.000595
     1441.400000       0.000566
     1441.500000       0.000531
     1441.600000       0.000495
     1441.700000       0.000457
     1441.800000       0.000424
     1441.900000       0.000394
     1442.000000       0.000374
     1442.100000       0.000359
     1442.200000       0.000356
     1442.300000       0.000361
     1442.400000       0.000371
     1442.500000       0.000392
     1442.600000       0.000419
     1442.700000       0.000450
     1442.800000       0.000483
     1442.900000       0.000515
     1443.000000       0.000544
     1443.100000       0.000570
     1443.200000       0.000588
     1443.300000       0.000596
     1443.400000       0.000601
     1443.500000       0.000597
     1443.600000       0.000584
     1443.700000       0.000567
     1443.800000       0.000544
     1443.900000       0.000521
     1444.000000       0.000496
     1444.100000       0.000475
     1444.200000       0.000457
     1444.300000       0.000448
     1444.400000       0.000444
     1444.500000       0.000444
     1444.600000       0.000455
     1444.700000       0.000471
     1444.800000       0.000495
     1444.900000       0.000522
     1445.000000       0.000551
     1445.100000       0.000580
     1445.200000       0.000607
     1445.300000       0.000629
     1445.400000       0.000645
     1445.500000       0.000654
     1445.600000       0.000652
     1445.700000       0.000646
     1445.800000       0.000631
     1445.900000       0.000607
     1446.000000       0.000579
     1446.100000       0.000547
     1446.200000       0.000516
     1446.300000       0.000485
     1446.400000       0.000461
     1446.500000       0.000440
     1446.600000       0.000435
     1446.700000       0.000435
     1446.800000       0.000437
     1446.900000       0.000458
     1447.000000       0.000486
     1447.100000       0.000523
     1447.200000       0.000565
     1447.300000       0.000609
     1447.400000       0.000655
     1447.500000       0.000698
     1447.600000       0.000736
     1447.700000       0.000768
     1447.800000       0.000791
     1447.900000       0.000801
     1448.000000       0.000806
     1448.100000       0.000800
     1448.200000       0.000782
     1448.300000       0.000759
     1448.400000       0.000729
     1448.500000       0.000696
     1448.600000       0.000664
     1448.700000       0.000634
     1448.800000       0.000608
     1448.900000       0.000589
     1449.000000       0.000576
     1449.100000       0.000573
     1449.200000       0.000579
     1449.300000       0.000588
     1449.400000       0.000607
     1449.500000       0.000631
     1449.600000       0.000658
     1449.700000       0.000685
     1449.800000       0.000712
     1449.900000       0.000735
     1450.000000       0.000752
     1450.100000       0.000764
     1450.200000       0.000763
     1450.300000       0.000760
     1450.400000       0.000751
     1450.500000       0.000731
     1450.600000       0.000708
     1450.700000       0.000682
     1450.800000       0.000657
     1450.900000       0.000633
     1451.000000       0.000614
     1451.100000       0.000599
     1451.200000       0.000596
     1451.300000       0.000600
     1451.400000       0.000608
     1451.500000       0.000630
     1451.600000       0.000658
     1451.700000       0.000693
     1451.800000       0.000732
     1451.900000       0.000773
     1452.000000       0.000814
     1452.100000       0.000852
     1452.200000       0.000885
     1452.300000       0.000911
     1452.400000       0.000931
     1452.500000       0.000934
     1452.600000       0.000934
     1452.700000       0.000930
     1452.800000       0.000911
     1452.900000       0.000890
     1453.000000       0.000865
     1453.100000       0.000841
     1453.200000       0.000819
     1453.300000       0.000802
     1453.400000       0.000793
     1453.500000       0.000789
     1453.600000       0.000796
     1453.700000       0.000810
     1453.800000       0.000835
     1453.900000       0.000867
     1454.000000       0.000906
     1454.100000       0.000947
     1454.200000       0.000990
     1454.300000       0.001032
     1454.400000       0.001069
     1454.500000       0.001102
     1454.600000       0.001124
     1454.700000       0.001141
     1454.800000       0.001144
     1454.900000       0.001137
     1455.000000       0.001126
     1455.100000       0.001103
     1455.200000       0.001075
     1455.300000       0.001043
     1455.400000       0.001012
     1455.500000       0.000982
     1455.600000       0.000956
     1455.700000       0.000937
     1455.800000       0.000924
     1455.900000       0.000925
     1456.000000       0.000930
     1456.100000       0.000942
     1456.200000       0.000967
     1456.300000       0.000996
     1456.400000       0.001030
     1456.500000       0.001065
     1456.600000       0.001100
     1456.700000       0.001130
     1456.800000       0.001157
     1456.900000       0.001173
     1457.000000       0.001182
     1457.100000       0.001185
     1457.200000       0.001175
     1457.300000       0.001159
     1457.400000       0.001137
     1457.500000       0.001109
     1457.600000       0.001081
     1457.700000       0.001053
     1457.800000       0.001029
     1457.900000       0.001011
     1458.000000       0.001007
     1458.100000       0.001006
     1458.200000       0.001010
     1458.300000       0.001029
     1458.400000       0.001071
     1458.500000       0.001156
     1458.600000       0.001230
     1458.700000       0.001279
     1458.800000       0.001325
     1458.900000       0.001373
     1459.000000       0.001417
     1459.100000       0.001454
     1459.200000       0.001484
     1459.300000       0.001502
     1459.400000       0.001514
     1459.500000       0.001513
     1459.600000       0.001505
     1459.700000       0.001493
     1459.800000       0.001473
     1459.900000       0.001452
     1460.000000       0.001432
     1460.100000       0.001416
     1460.200000       0.001407
     1460.300000       0.001403
     1460.400000       0.001410
     1460.500000       0.001423
     1460.600000       0.001448
     1460.700000       0.001481
     1460.800000       0.001521
     1460.900000       0.001568
     1461.000000       0.001616
     1461.100000       0.001665
     1461.200000       0.001710
     1461.300000       0.001751
     1461.400000       0.001783
     1461.500000       0.001810
     1461.600000       0.001821
     1461.700000       0.001825
     1461.800000       0.001825
     1461.900000       0.001812
     1462.000000       0.001793
     1462.100000       0.001770
     1462.200000       0.001746
     1462.300000       0.001723
     1462.400000       0.001706
     1462.500000       0.001700
     1462.600000       0.001697
     1462.700000       0.001703
     1462.800000       0.001724
     1462.900000       0.001752
     1463.000000       0.001793
     1463.100000       0.001839
     1463.200000       0.001895
     1463.300000       0.001952
     1463.400000       0.002011
     1463.500000       0.002066
     1463.600000       0.002117
     1463.700000       0.002160
     1463.800000       0.002195
     1463.900000       0.002220
     1464.000000       0.002232
     1464.100000       0.002239
     1464.200000       0.002236
     1464.300000       0.002226
     1464.400000       0.002213
     1464.500000       0.002197
     1464.600000       0.002184
     1464.700000       0.002176
     1464.800000       0.002174
     1464.900000       0.002184
     1465.000000       0.002201
     1465.100000       0.002231
     1465.200000       0.002270
     1465.300000       0.002318
     1465.400000       0.002374
     1465.500000       0.002435
     1465.600000       0.002500
     1465.700000       0.002563
     1465.800000       0.002625
     1465.900000       0.002679
     1466.000000       0.002727
     1466.100000       0.002763
     1466.200000       0.002792
     1466.300000       0.002807
     1466.400000       0.002815
     1466.500000       0.002818
     1466.600000       0.002814
     1466.700000       0.002807
     1466.800000       0.002800
     1466.900000       0.002794
     1467.000000       0.002796
     1467.100000       0.002805
     1467.200000       0.002822
     1467.300000       0.002854
     1467.400000       0.002894
     1467.500000       0.002948
     1467.600000       0.003009
     1467.700000       0.003079
     1467.800000       0.003153
     1467.900000       0.003230
     1468.000000       0.003307
     1468.100000       0.003381
     1468.200000       0.003450
     1468.300000       0.003509
     1468.400000       0.003560
     1468.500000       0.003597
     1468.600000       0.003626
     1468.700000       0.003643
     1468.800000       0.003655
     1468.900000       0.003661
     1469.000000       0.003664
     1469.100000       0.003667
     1469.200000       0.003674
     1469.300000       0.003684
     1469.400000       0.003704
     1469.500000       0.003732
     1469.600000       0.003773
     1469.700000       0.003824
     1469.800000       0.003886
     1469.900000       0.003960
     1470.000000       0.004039
     1470.100000       0.004125
     1470.200000       0.004209
     1470.300000       0.004294
     1470.400000       0.004373
     1470.500000       0.004447
     1470.600000       0.004511
     1470.700000       0.004566
     1470.800000       0.004610
     1470.900000       0.004642
     1471.000000       0.004667
     1471.100000       0.004684
     1471.200000       0.004696
     1471.300000       0.004710
     1471.400000       0.004724
     1471.500000       0.004743
     1471.600000       0.004772
     1471.700000       0.004808
     1471.800000       0.004858
     1471.900000       0.004919
     1472.000000       0.004993
     1472.100000       0.005080
     1472.200000       0.005176
     1472.300000       0.005281
     1472.400000       0.005390
     1472.500000       0.005501
     1472.600000       0.005609
     1472.700000       0.005713
     1472.800000       0.005807
     1472.900000       0.005892
     1473.000000       0.005966
     1473.100000       0.006029
     1473.200000       0.006081
     1473.300000       0.006122
     1473.400000       0.006156
     1473.500000       0.006184
     1473.600000       0.006211
     1473.700000       0.006240
     1473.800000       0.006273
     1473.900000       0.006314
     1474.000000       0.006368
     1474.100000       0.006432
     1474.200000       0.006512
     1474.300000       0.006603
     1474.400000       0.006708
     1474.500000       0.006824
     1474.600000       0.006949
     1474.700000       0.007080
     1474.800000       0.007214
     1474.900000       0.007348
     1475.000000       0.007476
     1475.100000       0.007599
     1475.200000       0.007712
     1475.300000       0.007813
     1475.400000       0.007902
     1475.500000       0.007980
     1475.600000       0.008051
     1475.700000       0.008113
     1475.800000       0.008172
     1475.900000       0.008228
     1476.000000       0.008285
     1476.100000       0.008347
     1476.200000       0.008416
     1476.300000       0.008498
     1476.400000       0.008593
     1476.500000       0.008702
     1476.600000       0.008829
     1476.700000       0.008967
     1476.800000       0.009119
     1476.900000       0.009278
     1477.000000       0.009443
     1477.100000       0.009611
     1477.200000       0.009778
     1477.300000       0.009942
     1477.400000       0.010099
     1477.500000       0.010249
     1477.600000       0.010389
     1477.700000       0.010520
     1477.800000       0.010641
     1477.900000       0.010752
     1478.000000       0.010860
     1478.100000       0.010963
     1478.200000       0.011070
     1478.300000       0.011182
     1478.400000       0.011301
     1478.500000       0.011431
     1478.600000       0.011575
     1478.700000       0.011732
     1478.800000       0.011906
     1478.900000       0.012093
     1479.000000       0.012296
     1479.100000       0.012507
     1479.200000       0.012730
     1479.300000       0.012957
     1479.400000       0.013185
     1479.500000       0.013412
     1479.600000       0.013631
     1479.700000       0.013844
     1479.800000       0.014046
     1479.900000       0.014239
     1480.000000       0.014420
     1480.100000       0.014592
     1480.200000       0.014756
     1480.300000       0.014913
     1480.400000       0.015071
     1480.500000       0.015229
     1480.600000       0.015392
     1480.700000       0.015566
     1480.800000       0.015752
     1480.900000       0.015955
     1481.000000       0.016174
     1481.100000       0.016408
     1481.200000       0.016659
     1481.300000       0.016923
     1481.400000       0.017201
     1481.500000       0.017486
     1481.600000       0.017779
     1481.700000       0.018073
     1481.800000       0.018366
     1481.900000       0.018656
     1482.000000       0.018934
     1482.100000       0.019204
     1482.200000       0.019462
     1482.300000       0.019710
     1482.400000       0.019951
     1482.500000       0.020186
     1482.600000       0.020421
     1482.700000       0.020659
     1482.800000       0.020902
     1482.900000       0.021157
     1483.000000       0.021423
     1483.100000       0.021708
     1483.200000       0.022008
     1483.300000       0.022329
     1483.400000       0.022672
     1483.500000       0.023031
     1483.600000       0.023411
     1483.700000       0.023800
     1483.800000       0.024200
     1483.900000       0.024604
     1484.000000       0.025006
     1484.100000       0.025407
     1484.200000       0.025800
     1484.300000       0.026187
     1484.400000       0.026565
     1484.500000       0.026936
     1484.600000       0.027302
     1484.700000       0.027663
     1484.800000       0.028023
     1484.900000       0.028386
     1485.000000       0.028756
     1485.100000       0.029141
     1485.200000       0.029541
     1485.300000       0.029964
     1485.400000       0.030410
     1485.500000       0.030880
     1485.600000       0.031376
     1485.700000       0.031893
     1485.800000       0.032435
     1485.900000       0.032991
     1486.000000       0.033563
     1486.100000       0.034143
     1486.200000       0.034727
     1486.300000       0.035311
     1486.400000       0.035888
     1486.500000       0.036458
     1486.600000       0.037019
     1486.700000       0.037571
     1486.800000       0.038118
     1486.900000       0.038663
     1487.000000       0.039210
     1487.100000       0.039764
     1487.200000       0.040329
     1487.300000       0.040915
     1487.400000       0.041517
     1487.500000       0.042148
     1487.600000       0.042808
     1487.700000       0.043499
     1487.800000       0.044226
     1487.900000       0.044981
     1488.000000       0.045768
     1488.100000       0.046575
     1488.200000       0.047400
     1488.300000       0.048238
     1488.400000       0.049079
     1488.500000       0.049924
     1488.600000       0.050758
     1488.700000       0.051583
     1488.800000       0.052393
     1488.900000       0.053182
     1489.000000       0.053969
     1489.100000       0.054759
     1489.200000       0.055557
     1489.300000       0.056369
     1489.400000       0.057195
     1489.500000       0.058053
     1489.600000       0.058934
     1489.700000       0.059852
     1489.800000       0.060806
     1489.900000       0.061800
     1490.000000       0.062841
     1490.100000       0.063918
     1490.200000       0.065031
     1490.300000       0.066172
     1490.400000       0.067335
     1490.500000       0.068518
     1490.600000       0.069709
     1490.700000       0.070907
     1490.800000       0.072095
     1490.900000       0.073274
     1491.000000       0.074447
     1491.100000       0.075613
     1491.200000       0.076780
     1491.300000       0.077957
     1491.400000       0.079147
     1491.500000       0.080362
     1491.600000       0.081599
     1491.700000       0.082868
     1491.800000       0.084172
     1491.900000       0.085518
     1492.000000       0.086910
     1492.100000       0.088347
     1492.200000       0.089834
     1492.300000       0.091364
     1492.400000       0.092935
     1492.500000       0.094542
     1492.600000       0.096175
     1492.700000       0.097838
     1492.800000       0.099519
     1492.900000       0.101216
     1493.000000       0.102919
     1493.100000       0.104625
     1493.200000       0.106337
     1493.300000       0.108061
     1493.400000       0.109799
     1493.500000       0.111558
     1493.600000       0.113337
     1493.700000       0.115150
     1493.800000       0.116997
     1493.900000       0.118882
     1494.000000       0.120825
     1494.100000       0.122811
     1494.200000       0.124847
     1494.300000       0.126932
     1494.400000       0.129079
     1494.500000       0.131278
     1494.600000       0.133498
     1494.700000       0.135743
     1494.800000       0.138016
     1494.900000       0.140321
     1495.000000       0.142642
     1495.100000       0.144976
     1495.200000       0.147326
     1495.300000       0.149691
     1495.400000       0.152070
     1495.500000       0.154468
     1495.600000       0.156891
     1495.700000       0.159347
     1495.800000       0.161831
     1495.900000       0.164367
     1496.000000       0.166970
     1496.100000       0.169624
     1496.200000       0.172344
     1496.300000       0.175125
     1496.400000       0.177984
     1496.500000       0.180914
     1496.600000       0.183912
     1496.700000       0.186967
     1496.800000       0.190075
     1496.900000       0.193245
     1497.000000       0.196459
     1497.100000       0.199704
     1497.200000       0.202980
     1497.300000       0.206278
     1497.400000       0.209600
     1497.500000       0.212943
     1497.600000       0.216310
     1497.700000       0.219695
     1497.800000       0.223105
     1497.900000       0.226542
     1498.000000       0.230013
     1498.100000       0.233521
     1498.200000       0.237077
     1498.300000       0.240679
     1498.400000       0.244338
     1498.500000       0.248072
     1498.600000       0.251867
     1498.700000       0.255740
     1498.800000       0.259678
     1498.900000       0.263685
     1499.000000       0.267754
     1499.100000       0.271874
     1499.200000       0.276048
     1499.300000       0.280266
     1499.400000       0.284530
     1499.500000       0.288829
     1499.600000       0.293165
     1499.700000       0.297528
     1499.800000       0.301913
     1499.900000       0.306324
     1500.000000       0.310776
     1500.100000       0.315257
     1500.200000       0.319779
     1500.300000       0.324344
     1500.400000       0.328952
     1500.500000       0.333612
     1500.600000       0.338309
     1500.700000       0.343074
     1500.800000       0.347895
     1500.900000       0.352790
     1501.000000       0.357751
     1501.100000       0.362785
     1501.200000       0.367894
     1501.300000       0.373071
     1501.400000       0.378318
     1501.500000       0.383625
     1501.600000       0.388989
     1501.700000       0.394405
     1501.800000       0.399861
     1501.900000       0.405357
     1502.000000       0.410873
     1502.100000       0.416412
     1502.200000       0.421977
     1502.300000       0.427565
     1502.400000       0.433169
     1502.500000       0.438792
     1502.600000       0.444428
     1502.700000       0.450068
     1502.800000       0.455714
     1502.900000       0.461360
     1503.000000       0.467015
     1503.100000       0.472685
     1503.200000       0.478372
     1503.300000       0.484079
     1503.400000       0.489809
     1503.500000       0.495556
     1503.600000       0.501304
     1503.700000       0.507058
     1503.800000       0.512822
     1503.900000       0.518596
     1504.000000       0.524383
     1504.100000       0.530189
     1504.200000       0.535999
     1504.300000       0.541792
     1504.400000       0.547575
     1504.500000       0.553345
     1504.600000       0.559104
     1504.700000       0.564844
     1504.800000       0.570564
     1504.900000       0.576262
     1505.000000       0.581937
     1505.100000       0.587592
     1505.200000       0.593222
     1505.300000       0.598827
     1505.400000       0.604403
     1505.500000       0.609953
     1505.600000       0.615485
     1505.700000       0.620996
     1505.800000       0.626497
     1505.900000       0.631993
     1506.000000       0.637484
     1506.100000       0.642971
     1506.200000       0.648449
     1506.300000       0.653910
     1506.400000       0.659357
     1506.500000       0.664811
     1506.600000       0.670291
     1506.700000       0.675795
     1506.800000       0.681335
     1506.900000       0.686895
     1507.000000       0.692459
     1507.100000       0.698028
     1507.200000       0.703572
     1507.300000       0.709092
     1507.400000       0.714583
     1507.500000       0.720041
     1507.600000       0.725494
     1507.700000       0.730936
     1507.800000       0.736360
     1507.900000       0.741743
     1508.000000       0.747089
     1508.100000       0.752352
     1508.200000       0.757533
     1508.300000       0.762619
     1508.400000       0.767597
     1508.500000       0.772483
     1508.600000       0.777269
     1508.700000       0.781943
     1508.800000       0.786500
     1508.900000       0.790977
     1509.000000       0.795376
     1509.100000       0.799690
     1509.200000       0.803940
     1509.300000       0.808137
     1509.400000       0.812276
     1509.500000       0.816350
     1509.600000       0.820364
     1509.700000       0.824344
     1509.800000       0.828264
     1509.900000       0.832143
     1510.000000       0.835967
     1510.100000       0.839751
     1510.200000       0.843499
     1510.300000       0.847219
     1510.400000       0.850921
     1510.500000       0.854605
     1510.600000       0.858256
     1510.700000       0.861870
     1510.800000       0.865456
     1510.900000       0.869001
     1511.000000       0.872492
     1511.100000       0.875914
     1511.200000       0.879285
     1511.300000       0.882589
     1511.400000       0.885830
     1511.500000       0.889000
     1511.600000       0.891996
     1511.700000       0.895085
     1511.800000       0.898700
     1511.900000       0.902496
     1512.000000       0.905544
     1512.100000       0.908201
     1512.200000       0.909833
     1512.300000       0.910601
     1512.400000       0.911459
     1512.500000       0.913254
     1512.600000       0.915598
     1512.700000       0.917740
     1512.800000       0.919861
     1512.900000       0.921939
     1513.000000       0.923971
     1513.100000       0.925989
     1513.200000       0.928012
     1513.300000       0.930011
     1513.400000       0.931950
     1513.500000       0.933844
     1513.600000       0.935699
     1513.700000       0.937516
     1513.800000       0.939296
     1513.900000       0.941022
     1514.000000       0.942714
     1514.100000       0.944363
     1514.200000       0.945992
     1514.300000       0.947624
     1514.400000       0.949262
     1514.500000       0.950898
     1514.600000       0.952531
     1514.700000       0.954156
     1514.800000       0.955773
     1514.900000       0.957380
     1515.000000       0.958977
     1515.100000       0.960558
     1515.200000       0.962077
     1515.300000       0.963539
     1515.400000       0.964970
     1515.500000       0.966374
     1515.600000       0.967749
     1515.700000       0.969082
     1515.800000       0.970370
     1515.900000       0.971588
     1516.000000       0.972755
     1516.100000       0.973903
     1516.200000       0.975058
     1516.300000       0.976125
     1516.400000       0.977029
     1516.500000       0.977868
     1516.600000       0.978714
     1516.700000       0.979564
     1516.800000       0.980300
     1516.900000       0.980935
     1517.000000       0.981513
     1517.100000       0.982052
     1517.200000       0.982544
     1517.300000       0.982992
     1517.400000       0.983355
     1517.500000       0.983606
     1517.600000       0.983763
     1517.700000       0.983876
     1517.800000       0.983951
     1517.900000       0.983994
     1518.000000       0.983944
     1518.100000       0.983819
     1518.200000       0.983689
     1518.300000       0.983536
     1518.400000       0.983361
     1518.500000       0.983157
     1518.600000       0.982941
     1518.700000       0.982720
     1518.800000       0.982476
     1518.900000       0.982217
     1519.000000       0.981946
     1519.100000       0.981664
     1519.200000       0.981371
     1519.300000       0.981070
     1519.400000       0.980763
     1519.500000       0.980453
     1519.600000       0.980151
     1519.700000       0.979853
     1519.800000       0.979526
     1519.900000       0.979166
     1520.000000       0.978797
     1520.100000       0.978431
     1520.200000       0.978048
     1520.300000       0.977624
     1520.400000       0.977166
     1520.500000       0.976695
     1520.600000       0.976208
     1520.700000       0.975702
     1520.800000       0.975176
     1520.900000       0.974631
     1521.000000       0.974045
     1521.100000       0.973438
     1521.200000       0.972835
     1521.300000       0.972232
     1521.400000       0.971604
     1521.500000       0.970936
     1521.600000       0.970260
     1521.700000       0.969587
     1521.800000       0.968909
     1521.900000       0.968222
     1522.000000       0.967533
     1522.100000       0.966845
     1522.200000       0.966159
     1522.300000       0.965475
     1522.400000       0.964791
     1522.500000       0.964110
     1522.600000       0.963431
     1522.700000       0.962753
     1522.800000       0.962078
     1522.900000       0.961403
     1523.000000       0.960731
     1523.100000       0.960062
     1523.200000       0.959395
     1523.300000       0.958729
     1523.400000       0.958065
     1523.500000       0.957402
     1523.600000       0.956741
     1523.700000       0.956080
     1523.800000       0.955422
     1523.900000       0.954766
     1524.000000       0.954114
     1524.100000       0.953466
     1524.200000       0.952814
     1524.300000       0.952161
     1524.400000       0.951513
     1524.500000       0.950872
     1524.600000       0.950235
     1524.700000       0.949595
     1524.800000       0.948958
     1524.900000       0.948342
     1525.000000       0.947748
     1525.100000       0.947163
     1525.200000       0.946578
     1525.300000       0.946009
     1525.400000       0.945479
     1525.500000       0.944973
     1525.600000       0.944478
     1525.700000       0.943989
     1525.800000       0.943517
     1525.900000       0.943062
     1526.000000       0.942628
     1526.100000       0.942228
     1526.200000       0.941851
     1526.300000       0.941482
     1526.400000       0.941120
     1526.500000       0.940770
     1526.600000       0.940435
     1526.700000       0.940107
     1526.800000       0.939781
     1526.900000       0.939459
     1527.000000       0.939141
     1527.100000       0.938826
     1527.200000       0.938514
     1527.300000       0.938207
     1527.400000       0.937902
     1527.500000       0.937598
     1527.600000       0.937293
     1527.700000       0.936994
     1527.800000       0.936701
     1527.900000       0.936420
     1528.000000       0.936153
     1528.100000       0.935894
     1528.200000       0.935635
     1528.300000       0.935384
     1528.400000       0.935163
     1528.500000       0.934960
     1528.600000       0.934750
     1528.700000       0.934524
     1528.800000       0.934298
     1528.900000       0.934088
     1529.000000       0.933885
     1529.100000       0.933684
     1529.200000       0.933486
     1529.300000       0.933282
     1529.400000       0.933063
     1529.500000       0.932837
     1529.600000       0.932606
     1529.700000       0.932370
     1529.800000       0.932135
     1529.900000       0.931900
     1530.000000       0.931659
     1530.100000       0.931375
     1530.200000       0.931074
     1530.300000       0.930775
     1530.400000       0.930474
     1530.500000       0.930172
     1530.600000       0.929870
     1530.700000       0.929567
     1530.800000       0.929252
     1530.900000       0.928934
     1531.000000       0.928621
     1531.100000       0.928311
     1531.200000       0.928008
     1531.300000       0.927716
     1531.400000       0.927437
     1531.500000       0.927172
     1531.600000       0.926925
     1531.700000       0.926710
     1531.800000       0.926519
     1531.900000       0.926341
     1532.000000       0.926177
     1532.100000       0.926025
     1532.200000       0.925892
     1532.300000       0.925770
     1532.400000       0.925639
     1532.500000       0.925500
     1532.600000       0.925352
     1532.700000       0.925190
     1532.800000       0.925002
     1532.900000       0.924778
     1533.000000       0.924497
     1533.100000       0.924153
     1533.200000       0.923757
     1533.300000       0.923335
     1533.400000       0.922893
     1533.500000       0.922443
     1533.600000       0.921983
     1533.700000       0.921522
     1533.800000       0.921080
     1533.900000       0.920651
     1534.000000       0.920259
     1534.100000       0.919894
     1534.200000       0.919579
     1534.300000       0.919335
     1534.400000       0.919138
     1534.500000       0.919005
     1534.600000       0.918911
     1534.700000       0.918881
     1534.800000       0.918963
     1534.900000       0.919112
     1535.000000       0.919348
     1535.100000       0.919612
     1535.200000       0.919952
     1535.300000       0.920392
     1535.400000       0.920869
     1535.500000       0.921365
     1535.600000       0.921897
     1535.700000       0.922474
     1535.800000       0.923095
     1535.900000       0.923727
     1536.000000       0.924370
     1536.100000       0.925025
     1536.200000       0.925693
     1536.300000       0.926375
     1536.400000       0.927073
     1536.500000       0.927788
     1536.600000       0.928501
     1536.700000       0.929213
     1536.800000       0.929927
     1536.900000       0.930643
     1537.000000       0.931359
     1537.100000       0.932075
     1537.200000       0.932786
     1537.300000       0.933503
     1537.400000       0.934245
     1537.500000       0.935005
     1537.600000       0.935787
     1537.700000       0.936585
     1537.800000       0.937391
     1537.900000       0.938205
     1538.000000       0.939019
     1538.100000       0.939834
     1538.200000       0.940644
     1538.300000       0.941444
     1538.400000       0.942235
     1538.500000       0.943011
     1538.600000       0.943775
     1538.700000       0.944518
     1538.800000       0.945235
     1538.900000       0.945929
     1539.000000       0.946592
     1539.100000       0.947251
     1539.200000       0.947862
     1539.300000       0.948408
     1539.400000       0.948901
     1539.500000       0.949379
     1539.600000       0.949840
     1539.700000       0.950268
     1539.800000       0.950671
     1539.900000       0.951039
     1540.000000       0.951369
     1540.100000       0.951678
     1540.200000       0.951980
     1540.300000       0.952270
     1540.400000       0.952531
     1540.500000       0.952764
     1540.600000       0.952994
     1540.700000       0.953231
     1540.800000       0.953468
     1540.900000       0.953705
     1541.000000       0.953947
     1541.100000       0.954203
     1541.200000       0.954481
     1541.300000       0.954779
     1541.400000       0.955095
     1541.500000       0.955427
     1541.600000       0.955787
     1541.700000       0.956170
     1541.800000       0.956560
     1541.900000       0.956961
     1542.000000       0.957369
     1542.100000       0.957790
     1542.200000       0.958219
     1542.300000       0.958634
     1542.400000       0.959034
     1542.500000       0.959428
     1542.600000       0.959819
     1542.700000       0.960201
     1542.800000       0.960555
     1542.900000       0.960886
     1543.000000       0.961199
     1543.100000       0.961496
     1543.200000       0.961780
     1543.300000       0.962049
     1543.400000       0.962308
     1543.500000       0.962553
     1543.600000       0.962789
     1543.700000       0.963033
     1543.800000       0.963289
     1543.900000       0.963569
     1544.000000       0.963900
     1544.100000       0.964283
     1544.200000       0.964695
     1544.300000       0.965143
     1544.400000       0.965627
     1544.500000       0.966159
     1544.600000       0.966729
     1544.700000       0.967313
     1544.800000       0.967920
     1544.900000       0.968540
     1545.000000       0.969171
     1545.100000       0.969804
     1545.200000       0.970438
     1545.300000       0.971070
     1545.400000       0.971681
     1545.500000       0.972276
     1545.600000       0.972849
     1545.700000       0.973388
     1545.800000       0.973908
     1545.900000       0.974405
     1546.000000       0.974884
     1546.100000       0.975345
     1546.200000       0.975788
     1546.300000       0.976227
     1546.400000       0.976662
     1546.500000       0.977094
     1546.600000       0.977519
     1546.700000       0.977937
     1546.800000       0.978351
     1546.900000       0.978760
     1547.000000       0.979160
     1547.100000       0.979548
     1547.200000       0.979925
     1547.300000       0.980287
     1547.400000       0.980634
     1547.500000       0.980968
     1547.600000       0.981293
     1547.700000       0.981603
     1547.800000       0.981880
     1547.900000       0.982130
     1548.000000       0.982372
     1548.100000       0.982590
     1548.200000       0.982778
     1548.300000       0.982937
     1548.400000       0.983072
     1548.500000       0.983183
     1548.600000       0.983269
     1548.700000       0.983345
     1548.800000       0.983419
     1548.900000       0.983488
     1549.000000       0.983540
     1549.100000       0.983580
     1549.200000       0.983615
     1549.300000       0.983644
     1549.400000       0.983671
     1549.500000       0.983705
     1549.600000       0.983743
     1549.700000       0.983771
     1549.800000       0.983789
     1549.900000       0.983811
     1550.000000       0.983854
     1550.100000       0.983917
     1550.200000       0.983996
     1550.300000       0.984130
     1550.400000       0.984299
     1550.500000       0.984485
     1550.600000       0.984690
     1550.700000       0.984929
     1550.800000       0.985197
     1550.900000       0.985489
     1551.000000       0.985804
     1551.100000       0.986155
     1551.200000       0.986557
     1551.300000       0.987007
     1551.400000       0.987480
     1551.500000       0.987983
     1551.600000       0.988515
     1551.700000       0.989081
     1551.800000       0.989671
     1551.900000       0.990274
     1552.000000       0.990893
     1552.100000       0.991497
     1552.200000       0.992085
     1552.300000       0.992651
     1552.400000       0.993176
     1552.500000       0.993654
     1552.600000       0.994118
     1552.700000       0.994585
     1552.800000       0.995003
     1552.900000       0.995348
     1553.000000       0.995662
     1553.100000       0.995981
     1553.200000       0.996297
     1553.300000       0.996555
     1553.400000       0.996757
     1553.500000       0.996932
     1553.600000       0.997090
     1553.700000       0.997233
     1553.800000       0.997373
     1553.900000       0.997508
     1554.000000       0.997641
     1554.100000       0.997771
     1554.200000       0.997900
     1554.300000       0.998031
     1554.400000       0.998168
     1554.500000       0.998323
     1554.600000       0.998515
     1554.700000       0.998722
     1554.800000       0.998921
     1554.900000       0.999120
     1555.000000       0.999331
     1555.100000       0.999550
     1555.200000       0.999732
     1555.300000       0.999863
     1555.400000       0.999961
     1555.500000       0.999988
     1555.600000       0.999997
     1555.700000       1.000000
     1555.800000       0.999938
     1555.900000       0.999811
     1556.000000       0.999657
     1556.100000       0.999438
     1556.200000       0.999189
     1556.300000       0.998896
     1556.400000       0.998569
     1556.500000       0.998219
     1556.600000       0.997850
     1556.700000       0.997470
     1556.800000       0.997069
     1556.900000       0.996586
     1557.000000       0.996108
     1557.100000       0.995635
     1557.200000       0.995161
     1557.300000       0.994687
     1557.400000       0.994218
     1557.500000       0.993758
     1557.600000       0.993303
     1557.700000       0.992858
     1557.800000       0.992421
     1557.900000       0.991975
     1558.000000       0.991516
     1558.100000       0.991049
     1558.200000       0.990573
     1558.300000       0.990085
     1558.400000       0.989582
     1558.500000       0.989067
     1558.600000       0.988539
     1558.700000       0.987992
     1558.800000       0.987433
     1558.900000       0.986877
     1559.000000       0.986323
     1559.100000       0.985770
     1559.200000       0.985224
     1559.300000       0.984687
     1559.400000       0.984160
     1559.500000       0.983641
     1559.600000       0.983138
     1559.700000       0.982650
     1559.800000       0.982179
     1559.900000       0.981732
     1560.000000       0.981303
     1560.100000       0.980889
     1560.200000       0.980495
     1560.300000       0.980116
     1560.400000       0.979756
     1560.500000       0.979411
     1560.600000       0.979086
     1560.700000       0.978780
     1560.800000       0.978489
     1560.900000       0.978212
     1561.000000       0.977951
     1561.100000       0.977711
     1561.200000       0.977493
     1561.300000       0.977299
     1561.400000       0.977130
     1561.500000       0.976986
     1561.600000       0.976845
     1561.700000       0.976717
     1561.800000       0.976636
     1561.900000       0.976586
     1562.000000       0.976550
     1562.100000       0.976526
     1562.200000       0.976513
     1562.300000       0.976512
     1562.400000       0.976525
     1562.500000       0.976543
     1562.600000       0.976573
     1562.700000       0.976603
     1562.800000       0.976606
     1562.900000       0.976597
     1563.000000       0.976580
     1563.100000       0.976515
     1563.200000       0.976405
     1563.300000       0.976281
     1563.400000       0.976109
     1563.500000       0.975850
     1563.600000       0.975503
     1563.700000       0.975122
     1563.800000       0.974605
     1563.900000       0.974022
     1564.000000       0.973395
     1564.100000       0.972697
     1564.200000       0.971979
     1564.300000       0.971257
     1564.400000       0.970536
     1564.500000       0.969856
     1564.600000       0.969202
     1564.700000       0.968612
     1564.800000       0.968102
     1564.900000       0.967646
     1565.000000       0.967240
     1565.100000       0.966875
     1565.200000       0.966548
     1565.300000       0.966253
     1565.400000       0.965989
     1565.500000       0.965758
     1565.600000       0.965573
     1565.700000       0.965427
     1565.800000       0.965301
     1565.900000       0.965137
     1566.000000       0.964827
     1566.100000       0.964504
     1566.200000       0.964149
     1566.300000       0.963749
     1566.400000       0.963323
     1566.500000       0.962881
     1566.600000       0.962418
     1566.700000       0.961940
     1566.800000       0.961443
     1566.900000       0.960943
     1567.000000       0.960442
     1567.100000       0.959948
     1567.200000       0.959500
     1567.300000       0.959095
     1567.400000       0.958696
     1567.500000       0.958277
     1567.600000       0.957869
     1567.700000       0.957515
     1567.800000       0.957196
     1567.900000       0.956876
     1568.000000       0.956554
     1568.100000       0.956231
     1568.200000       0.955903
     1568.300000       0.955551
     1568.400000       0.955176
     1568.500000       0.954777
     1568.600000       0.954354
     1568.700000       0.953906
     1568.800000       0.953428
     1568.900000       0.952919
     1569.000000       0.952365
     1569.100000       0.951794
     1569.200000       0.951231
     1569.300000       0.950666
     1569.400000       0.950102
     1569.500000       0.949529
     1569.600000       0.948977
     1569.700000       0.948472
     1569.800000       0.948007
     1569.900000       0.947590
     1570.000000       0.947299
     1570.100000       0.947093
     1570.200000       0.946889
     1570.300000       0.946754
     1570.400000       0.946763
     1570.500000       0.946842
     1570.600000       0.946949
     1570.700000       0.947127
     1570.800000       0.947367
     1570.900000       0.947630
     1571.000000       0.947934
     1571.100000       0.948255
     1571.200000       0.948599
     1571.300000       0.948940
     1571.400000       0.949223
     1571.500000       0.949469
     1571.600000       0.949695
     1571.700000       0.949902
     1571.800000       0.950048
     1571.900000       0.950063
     1572.000000       0.950056
     1572.100000       0.950030
     1572.200000       0.949863
     1572.300000       0.949657
     1572.400000       0.949405
     1572.500000       0.949103
     1572.600000       0.948748
     1572.700000       0.948347
     1572.800000       0.947941
     1572.900000       0.947519
     1573.000000       0.947088
     1573.100000       0.946676
     1573.200000       0.946283
     1573.300000       0.945904
     1573.400000       0.945532
     1573.500000       0.945171
     1573.600000       0.944837
     1573.700000       0.944540
     1573.800000       0.944272
     1573.900000       0.944046
     1574.000000       0.943850
     1574.100000       0.943700
     1574.200000       0.943580
     1574.300000       0.943490
     1574.400000       0.943483
     1574.500000       0.943532
     1574.600000       0.943598
     1574.700000       0.943688
     1574.800000       0.943754
     1574.900000       0.943821
     1575.000000       0.943902
     1575.100000       0.943997
     1575.200000       0.944100
     1575.300000       0.944206
     1575.400000       0.944316
     1575.500000       0.944431
     1575.600000       0.944550
     1575.700000       0.944674
     1575.800000       0.944804
     1575.900000       0.944941
     1576.000000       0.945083
     1576.100000       0.945229
     1576.200000       0.945378
     1576.300000       0.945526
     1576.400000       0.945669
     1576.500000       0.945814
     1576.600000       0.945979
     1576.700000       0.946172
     1576.800000       0.946360
     1576.900000       0.946531
     1577.000000       0.946680
     1577.100000       0.946833
     1577.200000       0.946989
     1577.300000       0.947146
     1577.400000       0.947313
     1577.500000       0.947479
     1577.600000       0.947638
     1577.700000       0.947795
     1577.800000       0.947948
     1577.900000       0.948095
     1578.000000       0.948241
     1578.100000       0.948391
     1578.200000       0.948543
     1578.300000       0.948698
     1578.400000       0.948853
     1578.500000       0.949016
     1578.600000       0.949197
     1578.700000       0.949395
     1578.800000       0.949602
     1578.900000       0.949817
     1579.000000       0.950037
     1579.100000       0.950258
     1579.200000       0.950481
     1579.300000       0.950703
     1579.400000       0.950925
     1579.500000       0.951145
     1579.600000       0.951363
     1579.700000       0.951578
     1579.800000       0.951791
     1579.900000       0.951997
     1580.000000       0.952205
     1580.100000       0.952427
     1580.200000       0.952660
     1580.300000       0.952884
     1580.400000       0.953094
     1580.500000       0.953299
     1580.600000       0.953506
     1580.700000       0.953711
     1580.800000       0.953896
     1580.900000       0.954056
     1581.000000       0.954206
     1581.100000       0.954334
     1581.200000       0.954448
     1581.300000       0.954529
     1581.400000       0.954578
     1581.500000       0.954619
     1581.600000       0.954640
     1581.700000       0.954649
     1581.800000       0.954626
     1581.900000       0.954543
     1582.000000       0.954434
     1582.100000       0.954346
     1582.200000       0.954262
     1582.300000       0.954155
     1582.400000       0.953995
     1582.500000       0.953814
     1582.600000       0.953644
     1582.700000       0.953474
     1582.800000       0.953299
     1582.900000       0.953117
     1583.000000       0.952928
     1583.100000       0.952730
     1583.200000       0.952547
     1583.300000       0.952375
     1583.400000       0.952219
     1583.500000       0.952065
     1583.600000       0.951914
     1583.700000       0.951772
     1583.800000       0.951629
     1583.900000       0.951482
     1584.000000       0.951339
     1584.100000       0.951212
     1584.200000       0.951098
     1584.300000       0.950974
     1584.400000       0.950833
     1584.500000       0.950678
     1584.600000       0.950506
     1584.700000       0.950313
     1584.800000       0.950100
     1584.900000       0.949864
     1585.000000       0.949599
     1585.100000       0.949294
     1585.200000       0.948941
     1585.300000       0.948548
     1585.400000       0.948105
     1585.500000       0.947639
     1585.600000       0.947147
     1585.700000       0.946620
     1585.800000       0.946050
     1585.900000       0.945419
     1586.000000       0.944768
     1586.100000       0.944148
     1586.200000       0.943548
     1586.300000       0.942957
     1586.400000       0.942347
     1586.500000       0.941737
     1586.600000       0.941151
     1586.700000       0.940582
     1586.800000       0.940045
     1586.900000       0.939550
     1587.000000       0.939084
     1587.100000       0.938641
     1587.200000       0.938226
     1587.300000       0.937827
     1587.400000       0.937449
     1587.500000       0.937081
     1587.600000       0.936726
     1587.700000       0.936390
     1587.800000       0.936044
     1587.900000       0.935662
     1588.000000       0.935257
     1588.100000       0.934848
     1588.200000       0.934444
     1588.300000       0.934035
     1588.400000       0.933614
     1588.500000       0.933188
     1588.600000       0.932765
     1588.700000       0.932347
     1588.800000       0.931937
     1588.900000       0.931541
     1589.000000       0.931156
     1589.100000       0.930780
     1589.200000       0.930414
     1589.300000       0.930053
     1589.400000       0.929690
     1589.500000       0.929327
     1589.600000       0.928965
     1589.700000       0.928601
     1589.800000       0.928227
     1589.900000       0.927843
     1590.000000       0.927452
     1590.100000       0.927055
     1590.200000       0.926648
     1590.300000       0.926234
     1590.400000       0.925808
     1590.500000       0.925372
     1590.600000       0.924925
     1590.700000       0.924465
     1590.800000       0.923999
     1590.900000       0.923533
     1591.000000       0.923069
     1591.100000       0.922616
     1591.200000       0.922177
     1591.300000       0.921746
     1591.400000       0.921319
     1591.500000       0.920891
     1591.600000       0.920500
     1591.700000       0.920163
     1591.800000       0.919854
     1591.900000       0.919556
     1592.000000       0.919271
     1592.100000       0.919001
     1592.200000       0.918749
     1592.300000       0.918511
     1592.400000       0.918290
     1592.500000       0.918083
     1592.600000       0.917881
     1592.700000       0.917680
     1592.800000       0.917482
     1592.900000       0.917279
     1593.000000       0.917067
     1593.100000       0.916849
     1593.200000       0.916631
     1593.300000       0.916411
     1593.400000       0.916184
     1593.500000       0.915944
     1593.600000       0.915705
     1593.700000       0.915480
     1593.800000       0.915265
     1593.900000       0.915064
     1594.000000       0.914880
     1594.100000       0.914715
     1594.200000       0.914579
     1594.300000       0.914462
     1594.400000       0.914359
     1594.500000       0.914273
     1594.600000       0.914199
     1594.700000       0.914141
     1594.800000       0.914095
     1594.900000       0.914046
     1595.000000       0.913983
     1595.100000       0.913913
     1595.200000       0.913842
     1595.300000       0.913764
     1595.400000       0.913670
     1595.500000       0.913531
     1595.600000       0.913353
     1595.700000       0.913164
     1595.800000       0.912957
     1595.900000       0.912732
     1596.000000       0.912490
     1596.100000       0.912229
     1596.200000       0.911958
     1596.300000       0.911675
     1596.400000       0.911389
     1596.500000       0.911110
     1596.600000       0.910837
     1596.700000       0.910585
     1596.800000       0.910371
     1596.900000       0.910174
     1597.000000       0.909989
     1597.100000       0.909808
     1597.200000       0.909705
     1597.300000       0.909668
     1597.400000       0.909641
     1597.500000       0.909597
     1597.600000       0.909545
     1597.700000       0.909488
     1597.800000       0.909427
     1597.900000       0.909360
     1598.000000       0.909286
     1598.100000       0.909207
     1598.200000       0.909116
     1598.300000       0.909005
     1598.400000       0.908876
     1598.500000       0.908723
     1598.600000       0.908540
     1598.700000       0.908347
     1598.800000       0.908140
     1598.900000       0.907922
     1599.000000       0.907688
     1599.100000       0.907439
     1599.200000       0.907186
     1599.300000       0.906943
     1599.400000       0.906706
     1599.500000       0.906470
     1599.600000       0.906234
     1599.700000       0.906000
     1599.800000       0.905773
     1599.900000       0.905550
     1600.000000       0.905344
     1600.100000       0.905163
     1600.200000       0.904995
     1600.300000       0.904831
     1600.400000       0.904674
     1600.500000       0.904511
     1600.600000       0.904325
     1600.700000       0.904119
     1600.800000       0.903897
     1600.900000       0.903664
     1601.000000       0.903415
     1601.100000       0.903141
     1601.200000       0.902827
     1601.300000       0.902486
     1601.400000       0.902114
     1601.500000       0.901729
     1601.600000       0.901349
     1601.700000       0.900967
     1601.800000       0.900606
     1601.900000       0.900277
     1602.000000       0.899976
     1602.100000       0.899702
     1602.200000       0.899439
     1602.300000       0.899204
     1602.400000       0.898993
     1602.500000       0.898811
     1602.600000       0.898706
     1602.700000       0.898646
     1602.800000       0.898605
     1602.900000       0.898597
     1603.000000       0.898596
     1603.100000       0.898596
     1603.200000       0.898599
     1603.300000       0.898602
     1603.400000       0.898583
     1603.500000       0.898548
     1603.600000       0.898505
     1603.700000       0.898452
     1603.800000       0.898388
     1603.900000       0.898320
     1604.000000       0.898246
     1604.100000       0.898165
     1604.200000       0.898075
     1604.300000       0.897980
     1604.400000       0.897909
     1604.500000       0.897861
     1604.600000       0.897823
     1604.700000       0.897829
     1604.800000       0.897857
     1604.900000       0.897903
     1605.000000       0.898021
     1605.100000       0.898147
     1605.200000       0.898316
     1605.300000       0.898534
     1605.400000       0.898773
     1605.500000       0.899035
     1605.600000       0.899325
     1605.700000       0.899636
     1605.800000       0.899964
     1605.900000       0.900295
     1606.000000       0.900626
     1606.100000       0.900952
     1606.200000       0.901228
     1606.300000       0.901460
     1606.400000       0.901665
     1606.500000       0.901846
     1606.600000       0.902025
     1606.700000       0.902189
     1606.800000       0.902338
     1606.900000       0.902473
     1607.000000       0.902593
     1607.100000       0.902702
     1607.200000       0.902793
     1607.300000       0.902898
     1607.400000       0.903031
     1607.500000       0.903176
     1607.600000       0.903341
     1607.700000       0.903512
     1607.800000       0.903679
     1607.900000       0.903847
     1608.000000       0.904045
     1608.100000       0.904296
     1608.200000       0.904567
     1608.300000       0.904824
     1608.400000       0.905074
     1608.500000       0.905318
     1608.600000       0.905557
     1608.700000       0.905783
     1608.800000       0.905973
     1608.900000       0.906141
     1609.000000       0.906273
     1609.100000       0.906366
     1609.200000       0.906439
     1609.300000       0.906488
     1609.400000       0.906511
     1609.500000       0.906517
     1609.600000       0.906509
     1609.700000       0.906478
     1609.800000       0.906440
     1609.900000       0.906395
     1610.000000       0.906335
     1610.100000       0.906319
     1610.200000       0.906316
     1610.300000       0.906318
     1610.400000       0.906348
     1610.500000       0.906389
     1610.600000       0.906449
     1610.700000       0.906555
     1610.800000       0.906689
     1610.900000       0.906841
     1611.000000       0.907012
     1611.100000       0.907190
     1611.200000       0.907361
     1611.300000       0.907535
     1611.400000       0.907720
     1611.500000       0.907917
     1611.600000       0.908119
     1611.700000       0.908339
     1611.800000       0.908553
     1611.900000       0.908712
     1612.000000       0.908825
     1612.100000       0.908929
     1612.200000       0.909047
     1612.300000       0.909172
     1612.400000       0.909280
     1612.500000       0.909357
     1612.600000       0.909428
     1612.700000       0.909513
     1612.800000       0.909610
     1612.900000       0.909723
     1613.000000       0.909865
     1613.100000       0.910034
     1613.200000       0.910218
     1613.300000       0.910429
     1613.400000       0.910657
     1613.500000       0.910906
     1613.600000       0.911175
     1613.700000       0.911464
     1613.800000       0.911780
     1613.900000       0.912098
     1614.000000       0.912392
     1614.100000       0.912669
     1614.200000       0.912942
     1614.300000       0.913212
     1614.400000       0.913470
     1614.500000       0.913700
     1614.600000       0.913902
     1614.700000       0.914088
     1614.800000       0.914260
     1614.900000       0.914418
     1615.000000       0.914580
     1615.100000       0.914745
     1615.200000       0.914919
     1615.300000       0.915114
     1615.400000       0.915334
     1615.500000       0.915580
     1615.600000       0.915864
     1615.700000       0.916168
     1615.800000       0.916495
     1615.900000       0.916853
     1616.000000       0.917235
     1616.100000       0.917661
     1616.200000       0.918116
     1616.300000       0.918584
     1616.400000       0.919067
     1616.500000       0.919554
     1616.600000       0.920038
     1616.700000       0.920528
     1616.800000       0.921016
     1616.900000       0.921494
     1617.000000       0.921966
     1617.100000       0.922431
     1617.200000       0.922888
     1617.300000       0.923340
     1617.400000       0.923792
     1617.500000       0.924242
     1617.600000       0.924688
     1617.700000       0.925127
     1617.800000       0.925569
     1617.900000       0.926019
     1618.000000       0.926477
     1618.100000       0.926938
     1618.200000       0.927402
     1618.300000       0.927876
     1618.400000       0.928352
     1618.500000       0.928830
     1618.600000       0.929309
     1618.700000       0.929780
     1618.800000       0.930249
     1618.900000       0.930713
     1619.000000       0.931167
     1619.100000       0.931611
     1619.200000       0.932036
     1619.300000       0.932445
     1619.400000       0.932833
     1619.500000       0.933195
     1619.600000       0.933536
     1619.700000       0.933848
     1619.800000       0.934124
     1619.900000       0.934379
     1620.000000       0.934609
     1620.100000       0.934807
     1620.200000       0.935000
     1620.300000       0.935199
     1620.400000       0.935396
     1620.500000       0.935590
     1620.600000       0.935778
     1620.700000       0.935967
     1620.800000       0.936163
     1620.900000       0.936365
     1621.000000       0.936577
     1621.100000       0.936807
     1621.200000       0.937048
     1621.300000       0.937293
     1621.400000       0.937542
     1621.500000       0.937795
     1621.600000       0.938053
     1621.700000       0.938316
     1621.800000       0.938582
     1621.900000       0.938852
     1622.000000       0.939117
     1622.100000       0.939317
     1622.200000       0.939459
     1622.300000       0.939576
     1622.400000       0.939696
     1622.500000       0.939809
     1622.600000       0.939885
     1622.700000       0.939921
     1622.800000       0.939943
     1622.900000       0.939940
     1623.000000       0.939905
     1623.100000       0.939864
     1623.200000       0.939829
     1623.300000       0.939794
     1623.400000       0.939776
     1623.500000       0.939766
     1623.600000       0.939761
     1623.700000       0.939771
     1623.800000       0.939808
     1623.900000       0.939871
     1624.000000       0.939977
     1624.100000       0.940122
     1624.200000       0.940273
     1624.300000       0.940433
     1624.400000       0.940604
     1624.500000       0.940789
     1624.600000       0.940983
     1624.700000       0.941167
     1624.800000       0.941336
     1624.900000       0.941500
     1625.000000       0.941632
     1625.100000       0.941743
     1625.200000       0.941833
     1625.300000       0.941894
     1625.400000       0.941917
     1625.500000       0.941925
     1625.600000       0.941876
     1625.700000       0.941800
     1625.800000       0.941716
     1625.900000       0.941594
     1626.000000       0.941465
     1626.100000       0.941351
     1626.200000       0.941239
     1626.300000       0.941129
     1626.400000       0.941009
     1626.500000       0.940901
     1626.600000       0.940828
     1626.700000       0.940776
     1626.800000       0.940731
     1626.900000       0.940705
     1627.000000       0.940694
     1627.100000       0.940682
     1627.200000       0.940659
     1627.300000       0.940631
     1627.400000       0.940608
     1627.500000       0.940586
     1627.600000       0.940546
     1627.700000       0.940477
     1627.800000       0.940392
     1627.900000       0.940270
     1628.000000       0.940065
     1628.100000       0.939817
     1628.200000       0.939570
     1628.300000       0.939308
     1628.400000       0.939027
     1628.500000       0.938723
     1628.600000       0.938400
     1628.700000       0.938067
     1628.800000       0.937722
     1628.900000       0.937368
     1629.000000       0.937009
     1629.100000       0.936638
     1629.200000       0.936246
     1629.300000       0.935838
     1629.400000       0.935423
     1629.500000       0.935006
     1629.600000       0.934586
     1629.700000       0.934166
     1629.800000       0.933740
     1629.900000       0.933301
     1630.000000       0.932841
     1630.100000       0.932349
     1630.200000       0.931835
     1630.300000       0.931314
     1630.400000       0.930780
     1630.500000       0.930240
     1630.600000       0.929696
     1630.700000       0.929148
     1630.800000       0.928609
     1630.900000       0.928077
     1631.000000       0.927559
     1631.100000       0.927067
     1631.200000       0.926605
     1631.300000       0.926168
     1631.400000       0.925763
     1631.500000       0.925364
     1631.600000       0.924973
     1631.700000       0.924591
     1631.800000       0.924218
     1631.900000       0.923855
     1632.000000       0.923509
     1632.100000       0.923170
     1632.200000       0.922834
     1632.300000       0.922502
     1632.400000       0.922162
     1632.500000       0.921814
     1632.600000       0.921458
     1632.700000       0.921089
     1632.800000       0.920708
     1632.900000       0.920313
     1633.000000       0.919903
     1633.100000       0.919477
     1633.200000       0.919032
     1633.300000       0.918559
     1633.400000       0.918071
     1633.500000       0.917574
     1633.600000       0.917063
     1633.700000       0.916554
     1633.800000       0.916058
     1633.900000       0.915572
     1634.000000       0.915093
     1634.100000       0.914627
     1634.200000       0.914164
     1634.300000       0.913721
     1634.400000       0.913299
     1634.500000       0.912887
     1634.600000       0.912483
     1634.700000       0.912087
     1634.800000       0.911689
     1634.900000       0.911289
     1635.000000       0.910884
     1635.100000       0.910469
     1635.200000       0.910047
     1635.300000       0.909609
     1635.400000       0.909130
     1635.500000       0.908621
     1635.600000       0.908091
     1635.700000       0.907510
     1635.800000       0.906866
     1635.900000       0.906184
     1636.000000       0.905464
     1636.100000       0.904720
     1636.200000       0.903953
     1636.300000       0.903162
     1636.400000       0.902368
     1636.500000       0.901572
     1636.600000       0.900783
     1636.700000       0.900016
     1636.800000       0.899269
     1636.900000       0.898542
     1637.000000       0.897830
     1637.100000       0.897132
     1637.200000       0.896488
     1637.300000       0.895933
     1637.400000       0.895423
     1637.500000       0.894935
     1637.600000       0.894454
     1637.700000       0.894000
     1637.800000       0.893596
     1637.900000       0.893232
     1638.000000       0.892881
     1638.100000       0.892525
     1638.200000       0.892162
     1638.300000       0.891771
     1638.400000       0.891341
     1638.500000       0.890890
     1638.600000       0.890419
     1638.700000       0.889934
     1638.800000       0.889441
     1638.900000       0.888941
     1639.000000       0.888431
     1639.100000       0.887902
     1639.200000       0.887343
     1639.300000       0.886780
     1639.400000       0.886233
     1639.500000       0.885698
     1639.600000       0.885189
     1639.700000       0.884716
     1639.800000       0.884269
     1639.900000       0.883842
     1640.000000       0.883438
     1640.100000       0.883053
     1640.200000       0.882697
     1640.300000       0.882384
     1640.400000       0.882093
     1640.500000       0.881822
     1640.600000       0.881566
     1640.700000       0.881314
     1640.800000       0.881067
     1640.900000       0.880823
     1641.000000       0.880578
     1641.100000       0.880332
     1641.200000       0.880075
     1641.300000       0.879794
     1641.400000       0.879493
     1641.500000       0.879183
     1641.600000       0.878865
     1641.700000       0.878538
     1641.800000       0.878205
     1641.900000       0.877866
     1642.000000       0.877524
     1642.100000       0.877179
     1642.200000       0.876835
     1642.300000       0.876531
     1642.400000       0.876279
     1642.500000       0.876062
     1642.600000       0.875884
     1642.700000       0.875740
     1642.800000       0.875614
     1642.900000       0.875508
     1643.000000       0.875426
     1643.100000       0.875384
     1643.200000       0.875407
     1643.300000       0.875473
     1643.400000       0.875544
     1643.500000       0.875612
     1643.600000       0.875688
     1643.700000       0.875774
     1643.800000       0.875878
     1643.900000       0.875978
     1644.000000       0.876064
     1644.100000       0.876144
     1644.200000       0.876186
     1644.300000       0.876199
     1644.400000       0.876206
     1644.500000       0.876187
     1644.600000       0.876131
     1644.700000       0.876074
     1644.800000       0.876036
     1644.900000       0.876010
     1645.000000       0.875980
     1645.100000       0.875941
     1645.200000       0.875901
     1645.300000       0.875883
     1645.400000       0.875890
     1645.500000       0.875905
     1645.600000       0.875930
     1645.700000       0.875989
     1645.800000       0.876058
     1645.900000       0.876125
     1646.000000       0.876196
     1646.100000       0.876255
     1646.200000       0.876309
     1646.300000       0.876351
     1646.400000       0.876358
     1646.500000       0.876346
     1646.600000       0.876323
     1646.700000       0.876266
     1646.800000       0.876194
     1646.900000       0.876118
     1647.000000       0.876032
     1647.100000       0.875932
     1647.200000       0.875818
     1647.300000       0.875684
     1647.400000       0.875533
     1647.500000       0.875375
     1647.600000       0.875217
     1647.700000       0.875058
     1647.800000       0.874896
     1647.900000       0.874732
     1648.000000       0.874575
     1648.100000       0.874425
     1648.200000       0.874281
     1648.300000       0.874142
     1648.400000       0.874006
     1648.500000       0.873878
     1648.600000       0.873766
     1648.700000       0.873664
     1648.800000       0.873573
     1648.900000       0.873508
     1649.000000       0.873454
     1649.100000       0.873395
     1649.200000       0.873327
     1649.300000       0.873264
     1649.400000       0.873217
     1649.500000       0.873187
     1649.600000       0.873182
     1649.700000       0.873199
     1649.800000       0.873259
     1649.900000       0.873334
     1650.000000       0.873433
     1650.100000       0.873564
     1650.200000       0.873717
     1650.300000       0.873909
     1650.400000       0.874134
     1650.500000       0.874381
     1650.600000       0.874663
     1650.700000       0.874966
     1650.800000       0.875294
     1650.900000       0.875645
     1651.000000       0.876007
     1651.100000       0.876403
     1651.200000       0.876811
     1651.300000       0.877201
     1651.400000       0.877576
     1651.500000       0.877937
     1651.600000       0.878292
     1651.700000       0.878641
     1651.800000       0.878951
     1651.900000       0.879234
     1652.000000       0.879501
     1652.100000       0.879755
     1652.200000       0.879996
     1652.300000       0.880225
     1652.400000       0.880443
     1652.500000       0.880654
     1652.600000       0.880848
     1652.700000       0.881012
     1652.800000       0.881156
     1652.900000       0.881292
     1653.000000       0.881423
     1653.100000       0.881553
     1653.200000       0.881690
     1653.300000       0.881874
     1653.400000       0.882083
     1653.500000       0.882278
     1653.600000       0.882464
     1653.700000       0.882670
     1653.800000       0.882960
     1653.900000       0.883285
     1654.000000       0.883616
     1654.100000       0.883938
     1654.200000       0.884248
     1654.300000       0.884538
     1654.400000       0.884809
     1654.500000       0.885068
     1654.600000       0.885314
     1654.700000       0.885549
     1654.800000       0.885775
     1654.900000       0.885992
     1655.000000       0.886200
     1655.100000       0.886390
     1655.200000       0.886555
     1655.300000       0.886713
     1655.400000       0.886891
     1655.500000       0.887090
     1655.600000       0.887294
     1655.700000       0.887495
     1655.800000       0.887695
     1655.900000       0.887910
     1656.000000       0.888163
     1656.100000       0.888443
     1656.200000       0.888770
     1656.300000       0.889127
     1656.400000       0.889499
     1656.500000       0.889884
     1656.600000       0.890291
     1656.700000       0.890714
     1656.800000       0.891158
     1656.900000       0.891617
     1657.000000       0.892082
     1657.100000       0.892557
     1657.200000       0.893035
     1657.300000       0.893495
     1657.400000       0.893933
     1657.500000       0.894361
     1657.600000       0.894786
     1657.700000       0.895214
     1657.800000       0.895622
     1657.900000       0.895984
     1658.000000       0.896316
     1658.100000       0.896634
     1658.200000       0.896941
     1658.300000       0.897224
     1658.400000       0.897494
     1658.500000       0.897747
     1658.600000       0.897992
     1658.700000       0.898234
     1658.800000       0.898472
     1658.900000       0.898711
     1659.000000       0.898954
     1659.100000       0.899201
     1659.200000       0.899451
     1659.300000       0.899705
     1659.400000       0.899962
     1659.500000       0.900219
     1659.600000       0.900478
     1659.700000       0.900734
     1659.800000       0.900982
     1659.900000       0.901245
     1660.000000       0.901521
     1660.100000       0.901812
     1660.200000       0.902119
     1660.300000       0.902413
     1660.400000       0.902675
     1660.500000       0.902929
     1660.600000       0.903204
     1660.700000       0.903508
     1660.800000       0.903813
     1660.900000       0.904093
     1661.000000       0.904359
     1661.100000       0.904599
     1661.200000       0.904801
     1661.300000       0.904976
     1661.400000       0.905143
     1661.500000       0.905312
     1661.600000       0.905474
     1661.700000       0.905618
     1661.800000       0.905749
     1661.900000       0.905862
     1662.000000       0.905911
     1662.100000       0.905885
     1662.200000       0.905839
     1662.300000       0.905754
     1662.400000       0.905601
     1662.500000       0.905406
     1662.600000       0.905223
     1662.700000       0.905043
     1662.800000       0.904846
     1662.900000       0.904609
     1663.000000       0.904351
     1663.100000       0.904081
     1663.200000       0.903791
     1663.300000       0.903496
     1663.400000       0.903211
     1663.500000       0.902928
     1663.600000       0.902666
     1663.700000       0.902430
     1663.800000       0.902213
     1663.900000       0.902037
     1664.000000       0.901893
     1664.100000       0.901780
     1664.200000       0.901721
     1664.300000       0.901679
     1664.400000       0.901629
     1664.500000       0.901560
     1664.600000       0.901463
     1664.700000       0.901349
     1664.800000       0.901225
     1664.900000       0.901082
     1665.000000       0.900925
     1665.100000       0.900752
     1665.200000       0.900565
     1665.300000       0.900352
     1665.400000       0.900093
     1665.500000       0.899810
     1665.600000       0.899533
     1665.700000       0.899262
     1665.800000       0.898979
     1665.900000       0.898667
     1666.000000       0.898327
     1666.100000       0.897988
     1666.200000       0.897669
     1666.300000       0.897360
     1666.400000       0.897068
     1666.500000       0.896802
     1666.600000       0.896561
     1666.700000       0.896369
     1666.800000       0.896214
     1666.900000       0.896084
     1667.000000       0.895976
     1667.100000       0.895886
     1667.200000       0.895789
     1667.300000       0.895713
     1667.400000       0.895654
     1667.500000       0.895594
     1667.600000       0.895525
     1667.700000       0.895452
     1667.800000       0.895363
     1667.900000       0.895254
     1668.000000       0.895122
     1668.100000       0.894958
     1668.200000       0.894695
     1668.300000       0.894359
     1668.400000       0.893989
     1668.500000       0.893565
     1668.600000       0.893075
     1668.700000       0.892484
     1668.800000       0.891823
     1668.900000       0.891120
     1669.000000       0.890360
     1669.100000       0.889557
     1669.200000       0.888758
     1669.300000       0.887960
     1669.400000       0.887096
     1669.500000       0.886273
     1669.600000       0.885487
     1669.700000       0.884700
     1669.800000       0.883896
     1669.900000       0.883079
     1670.000000       0.882288
     1670.100000       0.881560
     1670.200000       0.880864
     1670.300000       0.880218
     1670.400000       0.879615
     1670.500000       0.879054
     1670.600000       0.878546
     1670.700000       0.878101
     1670.800000       0.877716
     1670.900000       0.877383
     1671.000000       0.877083
     1671.100000       0.876800
     1671.200000       0.876528
     1671.300000       0.876270
     1671.400000       0.876003
     1671.500000       0.875709
     1671.600000       0.875445
     1671.700000       0.875208
     1671.800000       0.875025
     1671.900000       0.874860
     1672.000000       0.874692
     1672.100000       0.874522
     1672.200000       0.874346
     1672.300000       0.874154
     1672.400000       0.873945
     1672.500000       0.873727
     1672.600000       0.873508
     1672.700000       0.873283
     1672.800000       0.873038
     1672.900000       0.872753
     1673.000000       0.872447
     1673.100000       0.872130
     1673.200000       0.871808
     1673.300000       0.871476
     1673.400000       0.871133
     1673.500000       0.870777
     1673.600000       0.870408
     1673.700000       0.870019
     1673.800000       0.869609
     1673.900000       0.869187
     1674.000000       0.868740
     1674.100000       0.868277
     1674.200000       0.867811
     1674.300000       0.867342
     1674.400000       0.866872
     1674.500000       0.866402
     1674.600000       0.865930
     1674.700000       0.865460
     1674.800000       0.865004
     1674.900000       0.864566
     1675.000000       0.864128
     1675.100000       0.863668
     1675.200000       0.863187
     1675.300000       0.862696
     1675.400000       0.862198
     1675.500000       0.861691
     1675.600000       0.861189
     1675.700000       0.860697
     1675.800000       0.860210
     1675.900000       0.859728
     1676.000000       0.859252
     1676.100000       0.858778
     1676.200000       0.858314
     1676.300000       0.857859
     1676.400000       0.857405
     1676.500000       0.856953
     1676.600000       0.856500
     1676.700000       0.856059
     1676.800000       0.855638
     1676.900000       0.855233
     1677.000000       0.854851
     1677.100000       0.854496
     1677.200000       0.854162
     1677.300000       0.853852
     1677.400000       0.853602
     1677.500000       0.853383
     1677.600000       0.853199
     1677.700000       0.853046
     1677.800000       0.852926
     1677.900000       0.852837
     1678.000000       0.852758
     1678.100000       0.852694
     1678.200000       0.852661
     1678.300000       0.852643
     1678.400000       0.852626
     1678.500000       0.852601
     1678.600000       0.852574
     1678.700000       0.852546
     1678.800000       0.852520
     1678.900000       0.852493
     1679.000000       0.852461
     1679.100000       0.852422
     1679.200000       0.852377
     1679.300000       0.852323
     1679.400000       0.852251
     1679.500000       0.852173
     1679.600000       0.852092
     1679.700000       0.852010
     1679.800000       0.851926
     1679.900000       0.851868
     1680.000000       0.851824
     1680.100000       0.851778
     1680.200000       0.851709
     1680.300000       0.851650
     1680.400000       0.851631
     1680.500000       0.851636
     1680.600000       0.851643
     1680.700000       0.851643
     1680.800000       0.851628
     1680.900000       0.851600
     1681.000000       0.851567
     1681.100000       0.851526
     1681.200000       0.851476
     1681.300000       0.851417
     1681.400000       0.851343
     1681.500000       0.851258
     1681.600000       0.851152
     1681.700000       0.851028
     1681.800000       0.850888
     1681.900000       0.850731
     1682.000000       0.850566
     1682.100000       0.850403
     1682.200000       0.850242
     1682.300000       0.850087
     1682.400000       0.849953
     1682.500000       0.849842
     1682.600000       0.849736
     1682.700000       0.849661
     1682.800000       0.849604
     1682.900000       0.849565
     1683.000000       0.849553
     1683.100000       0.849584
     1683.200000       0.849638
     1683.300000       0.849704
     1683.400000       0.849796
     1683.500000       0.849898
     1683.600000       0.850014
     1683.700000       0.850139
     1683.800000       0.850269
     1683.900000       0.850407
     1684.000000       0.850551
     1684.100000       0.850684
     1684.200000       0.850807
     1684.300000       0.850924
     1684.400000       0.851036
     1684.500000       0.851145
     1684.600000       0.851248
     1684.700000       0.851342
     1684.800000       0.851430
     1684.900000       0.851517
     1685.000000       0.851606
     1685.100000       0.851695
     1685.200000       0.851794
     1685.300000       0.851922
     1685.400000       0.852067
     1685.500000       0.852223
     1685.600000       0.852391
     1685.700000       0.852570
     1685.800000       0.852759
     1685.900000       0.852958
     1686.000000       0.853170
     1686.100000       0.853407
     1686.200000       0.853676
     1686.300000       0.853961
     1686.400000       0.854259
     1686.500000       0.854573
     1686.600000       0.854897
     1686.700000       0.855225
     1686.800000       0.855559
     1686.900000       0.855903
     1687.000000       0.856261
     1687.100000       0.856630
     1687.200000       0.856993
     1687.300000       0.857343
     1687.400000       0.857686
     1687.500000       0.858016
     1687.600000       0.858328
     1687.700000       0.858636
     1687.800000       0.858940
     1687.900000       0.859240
     1688.000000       0.859534
     1688.100000       0.859817
     1688.200000       0.860090
     1688.300000       0.860344
     1688.400000       0.860552
     1688.500000       0.860732
     1688.600000       0.860897
     1688.700000       0.861052
     1688.800000       0.861197
     1688.900000       0.861342
     1689.000000       0.861498
     1689.100000       0.861648
     1689.200000       0.861780
     1689.300000       0.861918
     1689.400000       0.862065
     1689.500000       0.862227
     1689.600000       0.862405
     1689.700000       0.862599
     1689.800000       0.862811
     1689.900000       0.863017
     1690.000000       0.863227
     1690.100000       0.863457
     1690.200000       0.863703
     1690.300000       0.863970
     1690.400000       0.864275
     1690.500000       0.864644
     1690.600000       0.865068
     1690.700000       0.865549
     1690.800000       0.866082
     1690.900000       0.866636
     1691.000000       0.867202
     1691.100000       0.867786
     1691.200000       0.868365
     1691.300000       0.868936
     1691.400000       0.869545
     1691.500000       0.870194
     1691.600000       0.870901
     1691.700000       0.871630
     1691.800000       0.872335
     1691.900000       0.873026
     1692.000000       0.873670
     1692.100000       0.874266
     1692.200000       0.874862
     1692.300000       0.875435
     1692.400000       0.875973
     1692.500000       0.876490
     1692.600000       0.876952
     1692.700000       0.877319
     1692.800000       0.877664
     1692.900000       0.878006
     1693.000000       0.878351
     1693.100000       0.878694
     1693.200000       0.879035
     1693.300000       0.879369
     1693.400000       0.879701
     1693.500000       0.880042
     1693.600000       0.880385
     1693.700000       0.880720
     1693.800000       0.881043
     1693.900000       0.881351
     1694.000000       0.881652
     1694.100000       0.881952
     1694.200000       0.882247
     1694.300000       0.882532
     1694.400000       0.882796
     1694.500000       0.883042
     1694.600000       0.883287
     1694.700000       0.883542
     1694.800000       0.883808
     1694.900000       0.884097
     1695.000000       0.884405
     1695.100000       0.884729
     1695.200000       0.885069
     1695.300000       0.885438
     1695.400000       0.885824
     1695.500000       0.886205
     1695.600000       0.886577
     1695.700000       0.886948
     1695.800000       0.887322
     1695.900000       0.887728
     1696.000000       0.888150
     1696.100000       0.888580
     1696.200000       0.889024
     1696.300000       0.889469
     1696.400000       0.889897
     1696.500000       0.890310
     1696.600000       0.890723
     1696.700000       0.891125
     1696.800000       0.891523
     1696.900000       0.891898
     1697.000000       0.892225
     1697.100000       0.892516
     1697.200000       0.892783
     1697.300000       0.892996
     1697.400000       0.893181
     1697.500000       0.893360
     1697.600000       0.893545
     1697.700000       0.893726
     1697.800000       0.893892
     1697.900000       0.894037
     1698.000000       0.894166
     1698.100000       0.894287
     1698.200000       0.894401
     1698.300000       0.894511
     1698.400000       0.894620
     1698.500000       0.894728
     1698.600000       0.894834
     1698.700000       0.894938
     1698.800000       0.895040
     1698.900000       0.895142
     1699.000000       0.895242
     1699.100000       0.895342
     1699.200000       0.895446
     1699.300000       0.895559
     1699.400000       0.895672
     1699.500000       0.895767
     1699.600000       0.895832
     1699.700000       0.895885
     1699.800000       0.895922
     1699.900000       0.895949
     1700.000000       0.895971
     1700.100000       0.895980
     1700.200000       0.895958
     1700.300000       0.895903
     1700.400000       0.895837
     1700.500000       0.895751
     1700.600000       0.895643
     1700.700000       0.895533
     1700.800000       0.895420
     1700.900000       0.895303
     1701.000000       0.895176
     1701.100000       0.895003
     1701.200000       0.894816
     1701.300000       0.894650
     1701.400000       0.894506
     1701.500000       0.894377
     1701.600000       0.894234
     1701.700000       0.894075
     1701.800000       0.893911
     1701.900000       0.893750
     1702.000000       0.893590
     1702.100000       0.893423
     1702.200000       0.893237
     1702.300000       0.893037
     1702.400000       0.892832
     1702.500000       0.892633
     1702.600000       0.892436
     1702.700000       0.892237
     1702.800000       0.892028
     1702.900000       0.891809
     1703.000000       0.891571
     1703.100000       0.891290
     1703.200000       0.890984
     1703.300000       0.890672
     1703.400000       0.890362
     1703.500000       0.890041
     1703.600000       0.889666
     1703.700000       0.889145
     1703.800000       0.888555
     1703.900000       0.887940
     1704.000000       0.887291
     1704.100000       0.886601
     1704.200000       0.885869
     1704.300000       0.885079
     1704.400000       0.884257
     1704.500000       0.883430
     1704.600000       0.882553
     1704.700000       0.881639
     1704.800000       0.880675
     1704.900000       0.879659
     1705.000000       0.878610
     1705.100000       0.877522
     1705.200000       0.876393
     1705.300000       0.875252
     1705.400000       0.874119
     1705.500000       0.872978
     1705.600000       0.871826
     1705.700000       0.870633
     1705.800000       0.869411
     1705.900000       0.868159
     1706.000000       0.867128
     1706.100000       0.866064
     1706.200000       0.863977
     1706.300000       0.830324
     1706.400000       0.776236
     1706.500000       0.749707
     1706.600000       0.745504
     1706.700000       0.742624
     1706.800000       0.740034
     1706.900000       0.737591
     1707.000000       0.735219
     1707.100000       0.732887
     1707.200000       0.730587
     1707.300000       0.728345
     1707.400000       0.726187
     1707.500000       0.724113
     1707.600000       0.722096
     1707.700000       0.720126
     1707.800000       0.718221
     1707.900000       0.716350
     1708.000000       0.714507
     1708.100000       0.712717
     1708.200000       0.710932
     1708.300000       0.709123
     1708.400000       0.707302
     1708.500000       0.705453
     1708.600000       0.703548
     1708.700000       0.701598
     1708.800000       0.699626
     1708.900000       0.697651
     1709.000000       0.695678
     1709.100000       0.693699
     1709.200000       0.691704
     1709.300000       0.689696
     1709.400000       0.687658
     1709.500000       0.685589
     1709.600000       0.683486
     1709.700000       0.681328
     1709.800000       0.679106
     1709.900000       0.676823
     1710.000000       0.674462
     1710.100000       0.671980
     1710.200000       0.669419
     1710.300000       0.666762
     1710.400000       0.664011
     1710.500000       0.661196
     1710.600000       0.658309
     1710.700000       0.655321
     1710.800000       0.652288
     1710.900000       0.649236
     1711.000000       0.646157
     1711.100000       0.643056
     1711.200000       0.639927
     1711.300000       0.636774
     1711.400000       0.633583
     1711.500000       0.630329
     1711.600000       0.627015
     1711.700000       0.623651
     1711.800000       0.620244
     1711.900000       0.616789
     1712.000000       0.613291
     1712.100000       0.609750
     1712.200000       0.606159
     1712.300000       0.602527
     1712.400000       0.598831
     1712.500000       0.595077
     1712.600000       0.591288
     1712.700000       0.587457
     1712.800000       0.583596
     1712.900000       0.579716
     1713.000000       0.575823
     1713.100000       0.571911
     1713.200000       0.567992
     1713.300000       0.564068
     1713.400000       0.560132
     1713.500000       0.556178
     1713.600000       0.552200
     1713.700000       0.548204
     1713.800000       0.544183
     1713.900000       0.540135
     1714.000000       0.536062
     1714.100000       0.531967
     1714.200000       0.527848
     1714.300000       0.523708
     1714.400000       0.519549
     1714.500000       0.515353
     1714.600000       0.511131
     1714.700000       0.506888
     1714.800000       0.502622
     1714.900000       0.498342
     1715.000000       0.494056
     1715.100000       0.489762
     1715.200000       0.485463
     1715.300000       0.481165
     1715.400000       0.476865
     1715.500000       0.472571
     1715.600000       0.468294
     1715.700000       0.464023
     1715.800000       0.459757
     1715.900000       0.455502
     1716.000000       0.451255
     1716.100000       0.447017
     1716.200000       0.442790
     1716.300000       0.438577
     1716.400000       0.434376
     1716.500000       0.430191
     1716.600000       0.426019
     1716.700000       0.421859
     1716.800000       0.417718
     1716.900000       0.413583
     1717.000000       0.409454
     1717.100000       0.405331
     1717.200000       0.401211
     1717.300000       0.397107
     1717.400000       0.393028
     1717.500000       0.388970
     1717.600000       0.384926
     1717.700000       0.380899
     1717.800000       0.376892
     1717.900000       0.372904
     1718.000000       0.368941
     1718.100000       0.364998
     1718.200000       0.361076
     1718.300000       0.357188
     1718.400000       0.353327
     1718.500000       0.349490
     1718.600000       0.345684
     1718.700000       0.341901
     1718.800000       0.338138
     1718.900000       0.334403
     1719.000000       0.330695
     1719.100000       0.327014
     1719.200000       0.323356
     1719.300000       0.319715
     1719.400000       0.316100
     1719.500000       0.312511
     1719.600000       0.308947
     1719.700000       0.305409
     1719.800000       0.301902
     1719.900000       0.298422
     1720.000000       0.294970
     1720.100000       0.291554
     1720.200000       0.288163
     1720.300000       0.284806
     1720.400000       0.281481
     1720.500000       0.278183
     1720.600000       0.274917
     1720.700000       0.271685
     1720.800000       0.268484
     1720.900000       0.265312
     1721.000000       0.262174
     1721.100000       0.259064
     1721.200000       0.255988
     1721.300000       0.252961
     1721.400000       0.249965
     1721.500000       0.247005
     1721.600000       0.244079
     1721.700000       0.241182
     1721.800000       0.238315
     1721.900000       0.235480
     1722.000000       0.232670
     1722.100000       0.229879
     1722.200000       0.227123
     1722.300000       0.224390
     1722.400000       0.221693
     1722.500000       0.219024
     1722.600000       0.216385
     1722.700000       0.213777
     1722.800000       0.211199
     1722.900000       0.208648
     1723.000000       0.206124
     1723.100000       0.203628
     1723.200000       0.201152
     1723.300000       0.198693
     1723.400000       0.196261
     1723.500000       0.193843
     1723.600000       0.191450
     1723.700000       0.189072
     1723.800000       0.186714
     1723.900000       0.184386
     1724.000000       0.182087
     1724.100000       0.179803
     1724.200000       0.177540
     1724.300000       0.175292
     1724.400000       0.173061
     1724.500000       0.170859
     1724.600000       0.168675
     1724.700000       0.166516
     1724.800000       0.164388
     1724.900000       0.162286
     1725.000000       0.160213
     1725.100000       0.158171
     1725.200000       0.156160
     1725.300000       0.154175
     1725.400000       0.152215
     1725.500000       0.150289
     1725.600000       0.148396
     1725.700000       0.146555
     1725.800000       0.144756
     1725.900000       0.142983
     1726.000000       0.141221
     1726.100000       0.139471
     1726.200000       0.137735
     1726.300000       0.136019
     1726.400000       0.134319
     1726.500000       0.132636
     1726.600000       0.130968
     1726.700000       0.129315
     1726.800000       0.127684
     1726.900000       0.126080
     1727.000000       0.124499
     1727.100000       0.122943
     1727.200000       0.121417
     1727.300000       0.119917
     1727.400000       0.118437
     1727.500000       0.116974
     1727.600000       0.115532
     1727.700000       0.114104
     1727.800000       0.112701
     1727.900000       0.111312
     1728.000000       0.109946
     1728.100000       0.108632
     1728.200000       0.107341
     1728.300000       0.106066
     1728.400000       0.104804
     1728.500000       0.103557
     1728.600000       0.102321
     1728.700000       0.101100
     1728.800000       0.099894
     1728.900000       0.098703
     1729.000000       0.097526
     1729.100000       0.096362
     1729.200000       0.095216
     1729.300000       0.094090
     1729.400000       0.092982
     1729.500000       0.091892
     1729.600000       0.090822
     1729.700000       0.089771
     1729.800000       0.088729
     1729.900000       0.087701
     1730.000000       0.086685
     1730.100000       0.085675
     1730.200000       0.084672
     1730.300000       0.083680
     1730.400000       0.082704
     1730.500000       0.081757
     1730.600000       0.080827
     1730.700000       0.079908
     1730.800000       0.078996
     1730.900000       0.078095
     1731.000000       0.077204
     1731.100000       0.076318
     1731.200000       0.075438
     1731.300000       0.074583
     1731.400000       0.073761
     1731.500000       0.072962
     1731.600000       0.072173
     1731.700000       0.071390
     1731.800000       0.070619
     1731.900000       0.069859
     1732.000000       0.069115
     1732.100000       0.068381
     1732.200000       0.067655
     1732.300000       0.066934
     1732.400000       0.066216
     1732.500000       0.065504
     1732.600000       0.064799
     1732.700000       0.064098
     1732.800000       0.063423
     1732.900000       0.062785
     1733.000000       0.062171
     1733.100000       0.061559
     1733.200000       0.060946
     1733.300000       0.060336
     1733.400000       0.059730
     1733.500000       0.059126
     1733.600000       0.058527
     1733.700000       0.057934
     1733.800000       0.057348
     1733.900000       0.056768
     1734.000000       0.056194
     1734.100000       0.055624
     1734.200000       0.055062
     1734.300000       0.054525
     1734.400000       0.054030
     1734.500000       0.053555
     1734.600000       0.053083
     1734.700000       0.052610
     1734.800000       0.052142
     1734.900000       0.051680
     1735.000000       0.051226
     1735.100000       0.050779
     1735.200000       0.050335
     1735.300000       0.049894
     1735.400000       0.049458
     1735.500000       0.049025
     1735.600000       0.048593
     1735.700000       0.048164
     1735.800000       0.047738
     1735.900000       0.047319
     1736.000000       0.046904
     1736.100000       0.046493
     1736.200000       0.046085
     1736.300000       0.045679
     1736.400000       0.045289
     1736.500000       0.044932
     1736.600000       0.044594
     1736.700000       0.044260
     1736.800000       0.043920
     1736.900000       0.043580
     1737.000000       0.043243
     1737.100000       0.042914
     1737.200000       0.042588
     1737.300000       0.042263
     1737.400000       0.041937
     1737.500000       0.041612
     1737.600000       0.041289
     1737.700000       0.040968
     1737.800000       0.040649
     1737.900000       0.040331
     1738.000000       0.040014
     1738.100000       0.039697
     1738.200000       0.039382
     1738.300000       0.039070
     1738.400000       0.038760
     1738.500000       0.038451
     1738.600000       0.038143
     1738.700000       0.037837
     1738.800000       0.037533
     1738.900000       0.037229
     1739.000000       0.036926
     1739.100000       0.036630
     1739.200000       0.036349
     1739.300000       0.036082
     1739.400000       0.035823
     1739.500000       0.035576
     1739.600000       0.035339
     1739.700000       0.035107
     1739.800000       0.034875
     1739.900000       0.034646
     1740.000000       0.034420
     1740.100000       0.034199
     1740.200000       0.033983
     1740.300000       0.033769
     1740.400000       0.033554
     1740.500000       0.033339
     1740.600000       0.033126
     1740.700000       0.032915
     1740.800000       0.032708
     1740.900000       0.032501
     1741.000000       0.032295
     1741.100000       0.032089
     1741.200000       0.031884
     1741.300000       0.031681
     1741.400000       0.031481
     1741.500000       0.031280
     1741.600000       0.031079
     1741.700000       0.030878
     1741.800000       0.030678
     1741.900000       0.030478
     1742.000000       0.030280
     1742.100000       0.030083
     1742.200000       0.029886
     1742.300000       0.029689
     1742.400000       0.029492
     1742.500000       0.029297
     1742.600000       0.029103
     1742.700000       0.028910
     1742.800000       0.028717
     1742.900000       0.028523
     1743.000000       0.028330
     1743.100000       0.028138
     1743.200000       0.027947
     1743.300000       0.027757
     1743.400000       0.027567
     1743.500000       0.027376
     1743.600000       0.027186
     1743.700000       0.026998
     1743.800000       0.026814
     1743.900000       0.026631
     1744.000000       0.026448
     1744.100000       0.026264
     1744.200000       0.026082
     1744.300000       0.025902
     1744.400000       0.025725
     1744.500000       0.025550
     1744.600000       0.025375
     1744.700000       0.025199
     1744.800000       0.025024
     1744.900000       0.024851
     1745.000000       0.024681
     1745.100000       0.024512
     1745.200000       0.024345
     1745.300000       0.024177
     1745.400000       0.024010
     1745.500000       0.023843
     1745.600000       0.023678
     1745.700000       0.023514
     1745.800000       0.023350
     1745.900000       0.023186
     1746.000000       0.023023
     1746.100000       0.022860
     1746.200000       0.022697
     1746.300000       0.022535
     1746.400000       0.022373
     1746.500000       0.022212
     1746.600000       0.022051
     1746.700000       0.021890
     1746.800000       0.021730
     1746.900000       0.021569
     1747.000000       0.021410
     1747.100000       0.021252
     1747.200000       0.021095
     1747.300000       0.020940
     1747.400000       0.020784
     1747.500000       0.020630
     1747.600000       0.020476
     1747.700000       0.020325
     1747.800000       0.020174
     1747.900000       0.020025
     1748.000000       0.019878
     1748.100000       0.019732
     1748.200000       0.019589
     1748.300000       0.019445
     1748.400000       0.019303
     1748.500000       0.019162
     1748.600000       0.019023
     1748.700000       0.018888
     1748.800000       0.018754
     1748.900000       0.018621
     1749.000000       0.018489
     1749.100000       0.018358
     1749.200000       0.018228
     1749.300000       0.018105
     1749.400000       0.017979
     1749.500000       0.017836
     1749.600000       0.017659
     1749.700000       0.017456
     1749.800000       0.017206
     1749.900000       0.016863
     1750.000000       0.016469
     1750.100000       0.016100
     1750.200000       0.015764
     1750.300000       0.015442
     1750.400000       0.015140
     1750.500000       0.014868
     1750.600000       0.014613
     1750.700000       0.014369
     1750.800000       0.014136
     1750.900000       0.013912
     1751.000000       0.013690
     1751.100000       0.013469
     1751.200000       0.013250
     1751.300000       0.013036
     1751.400000       0.012828
     1751.500000       0.012625
     1751.600000       0.012429
     1751.700000       0.012245
     1751.800000       0.012073
     1751.900000       0.011911
     1752.000000       0.011764
     1752.100000       0.011628
     1752.200000       0.011498
     1752.300000       0.011372
     1752.400000       0.011251
     1752.500000       0.011131
     1752.600000       0.011011
     1752.700000       0.010890
     1752.800000       0.010769
     1752.900000       0.010646
     1753.000000       0.010522
     1753.100000       0.010397
     1753.200000       0.010275
     1753.300000       0.010155
     1753.400000       0.010039
     1753.500000       0.009929
     1753.600000       0.009826
     1753.700000       0.009727
     1753.800000       0.009633
     1753.900000       0.009546
     1754.000000       0.009461
     1754.100000       0.009377
     1754.200000       0.009293
     1754.300000       0.009209
     1754.400000       0.009123
     1754.500000       0.009032
     1754.600000       0.008940
     1754.700000       0.008852
     1754.800000       0.008769
     1754.900000       0.008689
     1755.000000       0.008611
     1755.100000       0.008536
     1755.200000       0.008465
     1755.300000       0.008396
     1755.400000       0.008330
     1755.500000       0.008266
     1755.600000       0.008205
     1755.700000       0.008149
     1755.800000       0.008096
     1755.900000       0.008045
     1756.000000       0.007998
     1756.100000       0.007953
     1756.200000       0.007909
     1756.300000       0.007866
     1756.400000       0.007824
     1756.500000       0.007782
     1756.600000       0.007738
     1756.700000       0.007694
     1756.800000       0.007648
     1756.900000       0.007600
     1757.000000       0.007551
     1757.100000       0.007500
     1757.200000       0.007448
     1757.300000       0.007394
     1757.400000       0.007340
     1757.500000       0.007287
     1757.600000       0.007234
     1757.700000       0.007182
     1757.800000       0.007133
     1757.900000       0.007085
     1758.000000       0.007039
     1758.100000       0.006997
     1758.200000       0.006957
     1758.300000       0.006919
     1758.400000       0.006883
     1758.500000       0.006850
     1758.600000       0.006817
     1758.700000       0.006785
     1758.800000       0.006753
     1758.900000       0.006721
     1759.000000       0.006688
     1759.100000       0.006653
     1759.200000       0.006616
     1759.300000       0.006577
     1759.400000       0.006537
     1759.500000       0.006493
     1759.600000       0.006449
     1759.700000       0.006404
     1759.800000       0.006357
     1759.900000       0.006311
     1760.000000       0.006266
     1760.100000       0.006222
     1760.200000       0.006179
     1760.300000       0.006139
     1760.400000       0.006101
     1760.500000       0.006065
     1760.600000       0.006032
     1760.700000       0.006001
     1760.800000       0.005972
     1760.900000       0.005944
     1761.000000       0.005918
     1761.100000       0.005893
     1761.200000       0.005867
     1761.300000       0.005841
     1761.400000       0.005814
     1761.500000       0.005785
     1761.600000       0.005754
     1761.700000       0.005722
     1761.800000       0.005689
     1761.900000       0.005653
     1762.000000       0.005616
     1762.100000       0.005578
     1762.200000       0.005541
     1762.300000       0.005503
     1762.400000       0.005465
     1762.500000       0.005430
     1762.600000       0.005397
     1762.700000       0.005365
     1762.800000       0.005337
     1762.900000       0.005311
     1763.000000       0.005287
     1763.100000       0.005266
     1763.200000       0.005247
     1763.300000       0.005229
     1763.400000       0.005211
     1763.500000       0.005194
     1763.600000       0.005177
     1763.700000       0.005159
     1763.800000       0.005140
     1763.900000       0.005120
     1764.000000       0.005098
     1764.100000       0.005074
     1764.200000       0.005048
     1764.300000       0.005021
     1764.400000       0.004993
     1764.500000       0.004965
     1764.600000       0.004936
     1764.700000       0.004909
     1764.800000       0.004882
     1764.900000       0.004856
     1765.000000       0.004833
     1765.100000       0.004811
     1765.200000       0.004792
     1765.300000       0.004775
     1765.400000       0.004760
     1765.500000       0.004747
     1765.600000       0.004735
     1765.700000       0.004724
     1765.800000       0.004714
     1765.900000       0.004703
     1766.000000       0.004691
     1766.100000       0.004679
     1766.200000       0.004665
     1766.300000       0.004648
     1766.400000       0.004629
     1766.500000       0.004609
     1766.600000       0.004585
     1766.700000       0.004561
     1766.800000       0.004535
     1766.900000       0.004508
     1767.000000       0.004481
     1767.100000       0.004454
     1767.200000       0.004428
     1767.300000       0.004403
     1767.400000       0.004379
     1767.500000       0.004358
     1767.600000       0.004339
     1767.700000       0.004321
     1767.800000       0.004305
     1767.900000       0.004291
     1768.000000       0.004278
     1768.100000       0.004264
     1768.200000       0.004252
     1768.300000       0.004239
     1768.400000       0.004224
     1768.500000       0.004208
     1768.600000       0.004190
     1768.700000       0.004170
     1768.800000       0.004148
     1768.900000       0.004124
     1769.000000       0.004098
     1769.100000       0.004070
     1769.200000       0.004041
     1769.300000       0.004012
     1769.400000       0.003983
     1769.500000       0.003954
     1769.600000       0.003927
     1769.700000       0.003902
     1769.800000       0.003878
     1769.900000       0.003858
     1770.000000       0.003841
     1770.100000       0.003825
     1770.200000       0.003812
     1770.300000       0.003801
     1770.400000       0.003791
     1770.500000       0.003783
     1770.600000       0.003774
     1770.700000       0.003765
     1770.800000       0.003756
     1770.900000       0.003745
     1771.000000       0.003732
     1771.100000       0.003718
     1771.200000       0.003702
     1771.300000       0.003683
     1771.400000       0.003662
     1771.500000       0.003640
     1771.600000       0.003617
     1771.700000       0.003593
     1771.800000       0.003570
     1771.900000       0.003548
     1772.000000       0.003526
     1772.100000       0.003506
     1772.200000       0.003487
     1772.300000       0.003471
     1772.400000       0.003457
     1772.500000       0.003444
     1772.600000       0.003434
     1772.700000       0.003424
     1772.800000       0.003414
     1772.900000       0.003405
     1773.000000       0.003396
     1773.100000       0.003385
     1773.200000       0.003372
     1773.300000       0.003358
     1773.400000       0.003341
     1773.500000       0.003321
     1773.600000       0.003299
     1773.700000       0.003276
     1773.800000       0.003250
     1773.900000       0.003223
     1774.000000       0.003195
     1774.100000       0.003166
     1774.200000       0.003138
     1774.300000       0.003111
     1774.400000       0.003085
     1774.500000       0.003061
     1774.600000       0.003039
     1774.700000       0.003020
     1774.800000       0.003002
     1774.900000       0.002987
     1775.000000       0.002973
     1775.100000       0.002961
     1775.200000       0.002949
     1775.300000       0.002937
     1775.400000       0.002925
     1775.500000       0.002913
     1775.600000       0.002899
     1775.700000       0.002882
     1775.800000       0.002864
     1775.900000       0.002844
     1776.000000       0.002820
     1776.100000       0.002795
     1776.200000       0.002769
     1776.300000       0.002741
     1776.400000       0.002712
     1776.500000       0.002683
     1776.600000       0.002655
     1776.700000       0.002627
     1776.800000       0.002600
     1776.900000       0.002577
     1777.000000       0.002555
     1777.100000       0.002534
     1777.200000       0.002517
     1777.300000       0.002502
     1777.400000       0.002488
     1777.500000       0.002475
     1777.600000       0.002464
     1777.700000       0.002453
     1777.800000       0.002441
     1777.900000       0.002428
     1778.000000       0.002414
     1778.100000       0.002398
     1778.200000       0.002380
     1778.300000       0.002360
     1778.400000       0.002338
     1778.500000       0.002314
     1778.600000       0.002287
     1778.700000       0.002260
     1778.800000       0.002233
     1778.900000       0.002205
     1779.000000       0.002178
     1779.100000       0.002153
     1779.200000       0.002129
     1779.300000       0.002107
     1779.400000       0.002088
     1779.500000       0.002071
     1779.600000       0.002056
     1779.700000       0.002043
     1779.800000       0.002033
     1779.900000       0.002023
     1780.000000       0.002014
     1780.100000       0.002006
     1780.200000       0.001997
     1780.300000       0.001987
     1780.400000       0.001975
     1780.500000       0.001961
     1780.600000       0.001946
     1780.700000       0.001929
     1780.800000       0.001910
     1780.900000       0.001889
     1781.000000       0.001867
     1781.100000       0.001843
     1781.200000       0.001819
     1781.300000       0.001796
     1781.400000       0.001773
     1781.500000       0.001751
     1781.600000       0.001731
     1781.700000       0.001713
     1781.800000       0.001696
     1781.900000       0.001681
     1782.000000       0.001669
     1782.100000       0.001658
     1782.200000       0.001648
     1782.300000       0.001639
     1782.400000       0.001630
     1782.500000       0.001621
     1782.600000       0.001611
     1782.700000       0.001600
     1782.800000       0.001588
     1782.900000       0.001574
     1783.000000       0.001557
     1783.100000       0.001539
     1783.200000       0.001520
     1783.300000       0.001499
     1783.400000       0.001476
     1783.500000       0.001454
     1783.600000       0.001432
     1783.700000       0.001410
     1783.800000       0.001389
     1783.900000       0.001371
     1784.000000       0.001354
     1784.100000       0.001338
     1784.200000       0.001326
     1784.300000       0.001316
     1784.400000       0.001307
     1784.500000       0.001300
     1784.600000       0.001295
     1784.700000       0.001290
     1784.800000       0.001285
     1784.900000       0.001279
     1785.000000       0.001273
     1785.100000       0.001266
     1785.200000       0.001256
     1785.300000       0.001244
     1785.400000       0.001231
     1785.500000       0.001215
     1785.600000       0.001197
     1785.700000       0.001177
     1785.800000       0.001157
     1785.900000       0.001135
     1786.000000       0.001114
     1786.100000       0.001094
     1786.200000       0.001075
     1786.300000       0.001057
     1786.400000       0.001041
     1786.500000       0.001028
     1786.600000       0.001017
     1786.700000       0.001009
     1786.800000       0.001003
     1786.900000       0.000999
     1787.000000       0.000995
     1787.100000       0.000993
     1787.200000       0.000992
     1787.300000       0.000990
     1787.400000       0.000986
     1787.500000       0.000982
     1787.600000       0.000976
     1787.700000       0.000970
     1787.800000       0.000961
     1787.900000       0.000949
     1788.000000       0.000928
     1788.100000       0.000888
     1788.200000       0.000848
     1788.300000       0.000817
     1788.400000       0.000797
     1788.500000       0.000780
     1788.600000       0.000765
     1788.700000       0.000750
     1788.800000       0.000737
     1788.900000       0.000726
     1789.000000       0.000718
     1789.100000       0.000711
     1789.200000       0.000705
     1789.300000       0.000702
     1789.400000       0.000699
     1789.500000       0.000697
     1789.600000       0.000694
     1789.700000       0.000690
     1789.800000       0.000687
     1789.900000       0.000682
     1790.000000       0.000675
     1790.100000       0.000666
     1790.200000       0.000656
     1790.300000       0.000645
     1790.400000       0.000631
     1790.500000       0.000618
     1790.600000       0.000604
     1790.700000       0.000590
     1790.800000       0.000576
     1790.900000       0.000564
     1791.000000       0.000553
     1791.100000       0.000545
     1791.200000       0.000541
     1791.300000       0.000538
     1791.400000       0.000535
     1791.500000       0.000535
     1791.600000       0.000537
     1791.700000       0.000541
     1791.800000       0.000546
     1791.900000       0.000551
     1792.000000       0.000556
     1792.100000       0.000559
     1792.200000       0.000559
     1792.300000       0.000560
     1792.400000       0.000560
     1792.500000       0.000558
     1792.600000       0.000554
     1792.700000       0.000546
     1792.800000       0.000538
     1792.900000       0.000529
     1793.000000       0.000519
     1793.100000       0.000509
     1793.200000       0.000500
     1793.300000       0.000491
     1793.400000       0.000484
     1793.500000       0.000479
     1793.600000       0.000475
     1793.700000       0.000472
     1793.800000       0.000472
     1793.900000       0.000474
     1794.000000       0.000476
     1794.100000       0.000478
     1794.200000       0.000482
     1794.300000       0.000486
     1794.400000       0.000486
     1794.500000       0.000486
     1794.600000       0.000486
     1794.700000       0.000485
     1794.800000       0.000481
     1794.900000       0.000474
     1795.000000       0.000464
     1795.100000       0.000454
     1795.200000       0.000441
     1795.300000       0.000427
     1795.400000       0.000414
     1795.500000       0.000400
     1795.600000       0.000386
     1795.700000       0.000375
     1795.800000       0.000364
     1795.900000       0.000355
     1796.000000       0.000351
     1796.100000       0.000348
     1796.200000       0.000346
     1796.300000       0.000346
     1796.400000       0.000347
     1796.500000       0.000351
     1796.600000       0.000355
     1796.700000       0.000359
     1796.800000       0.000362
     1796.900000       0.000365
     1797.000000       0.000365
     1797.100000       0.000363
     1797.200000       0.000360
     1797.300000       0.000356
     1797.400000       0.000349
     1797.500000       0.000339
     1797.600000       0.000329
     1797.700000       0.000318
     1797.800000       0.000306
     1797.900000       0.000294
     1798.000000       0.000283
     1798.100000       0.000273
     1798.200000       0.000264
     1798.300000       0.000258
     1798.400000       0.000252
     1798.500000       0.000248
     1798.600000       0.000247
     1798.700000       0.000247
     1798.800000       0.000248
     1798.900000       0.000248
     1799.000000       0.000250
     1799.100000       0.000252
     1799.200000       0.000253
     1799.300000       0.000253
     1799.400000       0.000251
     1799.500000       0.000249
     1799.600000       0.000246
     1799.700000       0.000241
     1799.800000       0.000235
     1799.900000       0.000228
     1800.000000       0.000220
     1800.100000       0.000213
     1800.200000       0.000206
     1800.300000       0.000200
     1800.400000       0.000194
     1800.500000       0.000192
     1800.600000       0.000192
     1800.700000       0.000193
     1800.800000       0.000195
     1800.900000       0.000199
     1801.000000       0.000205
     1801.100000       0.000214
     1801.200000       0.000222
     1801.300000       0.000232
     1801.400000       0.000241
     1801.500000       0.000248
     1801.600000       0.000256
     1801.700000       0.000262
     1801.800000       0.000264
     1801.900000       0.000264
     1802.000000       0.000262
     1802.100000       0.000261
     1802.200000       0.000257
     1802.300000       0.000250
     1802.400000       0.000242
     1802.500000       0.000233
     1802.600000       0.000224
     1802.700000       0.000215
     1802.800000       0.000208
     1802.900000       0.000202
     1803.000000       0.000196
     1803.100000       0.000194
     1803.200000       0.000194
     1803.300000       0.000195
     1803.400000       0.000196
     1803.500000       0.000199
     1803.600000       0.000203
     1803.700000       0.000209
     1803.800000       0.000213
     1803.900000       0.000218
     1804.000000       0.000222
     1804.100000       0.000223
     1804.200000       0.000222
     1804.300000       0.000221
     1804.400000       0.000219
     1804.500000       0.000215
     1804.600000       0.000209
     1804.700000       0.000201
     1804.800000       0.000193
     1804.900000       0.000185
     1805.000000       0.000177
     1805.100000       0.000171
     1805.200000       0.000165
     1805.300000       0.000161
     1805.400000       0.000160
     1805.500000       0.000161
     1805.600000       0.000163
     1805.700000       0.000166
     1805.800000       0.000171
     1805.900000       0.000179
     1806.000000       0.000187
     1806.100000       0.000194
     1806.200000       0.000202
     1806.300000       0.000209
     1806.400000       0.000214
     1806.500000       0.000218
     1806.600000       0.000220
     1806.700000       0.000221
     1806.800000       0.000219
     1806.900000       0.000215
     1807.000000       0.000209
     1807.100000       0.000202
     1807.200000       0.000194
     1807.300000       0.000187
     1807.400000       0.000179
     1807.500000       0.000171
     1807.600000       0.000165
     1807.700000       0.000160
     1807.800000       0.000157
     1807.900000       0.000155
     1808.000000       0.000154
     1808.100000       0.000155
     1808.200000       0.000158
     1808.300000       0.000161
     1808.400000       0.000164
     1808.500000       0.000168
     1808.600000       0.000171
     1808.700000       0.000172
     1808.800000       0.000172
     1808.900000       0.000172
     1809.000000       0.000172
     1809.100000       0.000169
     1809.200000       0.000164
     1809.300000       0.000157
     1809.400000       0.000150
     1809.500000       0.000142
     1809.600000       0.000133
     1809.700000       0.000126
     1809.800000       0.000118
     1809.900000       0.000112
     1810.000000       0.000108
     1810.100000       0.000105
     1810.200000       0.000103
     1810.300000       0.000103
     1810.400000       0.000104
     1810.500000       0.000108
     1810.600000       0.000112
     1810.700000       0.000117
     1810.800000       0.000122
     1810.900000       0.000127
     1811.000000       0.000129
     1811.100000       0.000131
     1811.200000       0.000133
     1811.300000       0.000133
     1811.400000       0.000130
     1811.500000       0.000124
     1811.600000       0.000118
     1811.700000       0.000110
     1811.800000       0.000099
     1811.900000       0.000089
     1812.000000       0.000078
     1812.100000       0.000067
     1812.200000       0.000057
     1812.300000       0.000048
     1812.400000       0.000040
     1812.500000       0.000033
     1812.600000       0.000030
     1812.700000       0.000030
     1812.800000       0.000030
     1812.900000       0.000030
     1813.000000       0.000032
     1813.100000       0.000036
     1813.200000       0.000041
     1813.300000       0.000046
     1813.400000       0.000051
     1813.500000       0.000055
     1813.600000       0.000057
     1813.700000       0.000058
     1813.800000       0.000058
     1813.900000       0.000058
     1814.000000       0.000056
     1814.100000       0.000052
     1814.200000       0.000048
     1814.300000       0.000043
     1814.400000       0.000038
     1814.500000       0.000034
     1814.600000       0.000033
     1814.700000       0.000033
     1814.800000       0.000033
     1814.900000       0.000033
     1815.000000       0.000037
     1815.100000       0.000044
     1815.200000       0.000052
     1815.300000       0.000060
     1815.400000       0.000071
     1815.500000       0.000081
     1815.600000       0.000092
     1815.700000       0.000102
     1815.800000       0.000111
     1815.900000       0.000116
     1816.000000       0.000121
     1816.100000       0.000124
     1816.200000       0.000125
     1816.300000       0.000123
     1816.400000       0.000118
     1816.500000       0.000112
     1816.600000       0.000105
     1816.700000       0.000096
     1816.800000       0.000086
     1816.900000       0.000077
     1817.000000       0.000068
     1817.100000       0.000060
     1817.200000       0.000054
     1817.300000       0.000050
     1817.400000       0.000047
     1817.500000       0.000045
     1817.600000       0.000046
     1817.700000       0.000049
     1817.800000       0.000052
     1817.900000       0.000056
     1818.000000       0.000061
     1818.100000       0.000067
     1818.200000       0.000072
     1818.300000       0.000077
     1818.400000       0.000082
     1818.500000       0.000085
     1818.600000       0.000086
     1818.700000       0.000086
     1818.800000       0.000087
     1818.900000       0.000087
     1819.000000       0.000085
     1819.100000       0.000083
     1819.200000       0.000081
     1819.300000       0.000079
     1819.400000       0.000078
     1819.500000       0.000078
     1819.600000       0.000079
     1819.700000       0.000081
     1819.800000       0.000084
     1819.900000       0.000087
     1820.000000       0.000093
     1820.100000       0.000098
     1820.200000       0.000104
     1820.300000       0.000110
     1820.400000       0.000116
     1820.500000       0.000120
     1820.600000       0.000122
     1820.700000       0.000124
     1820.800000       0.000125
     1820.900000       0.000125
     1821.000000       0.000121
     1821.100000       0.000116
     1821.200000       0.000110
     1821.300000       0.000103
     1821.400000       0.000095
     1821.500000       0.000086
     1821.600000       0.000078
     1821.700000       0.000070
     1821.800000       0.000063
     1821.900000       0.000057
     1822.000000       0.000051
     1822.100000       0.000048
     1822.200000       0.000047
     1822.300000       0.000047
     1822.400000       0.000047
     1822.500000       0.000047
     1822.600000       0.000049
     1822.700000       0.000052
     1822.800000       0.000054
     1822.900000       0.000054
     1823.000000       0.000055
     1823.100000       0.000055
     1823.200000       0.000054
     1823.300000       0.000052
     1823.400000       0.000048
     1823.500000       0.000043
     1823.600000       0.000037
     1823.700000       0.000031
     1823.800000       0.000025
     1823.900000       0.000019
     1824.000000       0.000013
     1824.100000       0.000009
     1824.200000       0.000008
     1824.300000       0.000008
     1824.400000       0.000008
     1824.500000       0.000008
     1824.600000       0.000011
     1824.700000       0.000017
     1824.800000       0.000023
     1824.900000       0.000030
     1825.000000       0.000037
     1825.100000       0.000044
     1825.200000       0.000050
     1825.300000       0.000056
     1825.400000       0.000060
     1825.500000       0.000062
     1825.600000       0.000061
     1825.700000       0.000060
     1825.800000       0.000059
     1825.900000       0.000055
     1826.000000       0.000050
     1826.100000       0.000043
     1826.200000       0.000038
     1826.300000       0.000032
     1826.400000       0.000026
     1826.500000       0.000022
     1826.600000       0.000020
     1826.700000       0.000019
     1826.800000       0.000018
     1826.900000       0.000020
     1827.000000       0.000024
     1827.100000       0.000029
     1827.200000       0.000035
     1827.300000       0.000043
     1827.400000       0.000050
     1827.500000       0.000058
     1827.600000       0.000065
     1827.700000       0.000072
     1827.800000       0.000076
     1827.900000       0.000077
     1828.000000       0.000078
     1828.100000       0.000078
     1828.200000       0.000078
     1828.300000       0.000074
     1828.400000       0.000068
     1828.500000       0.000063
     1828.600000       0.000056
     1828.700000       0.000050
     1828.800000       0.000044
     1828.900000       0.000039
     1829.000000       0.000034
     1829.100000       0.000031
     1829.200000       0.000031
     1829.300000       0.000031
     1829.400000       0.000032
     1829.500000       0.000034
     1829.600000       0.000037
     1829.700000       0.000042
     1829.800000       0.000047
     1829.900000       0.000052
     1830.000000       0.000057
     1830.100000       0.000061
     1830.200000       0.000062
     1830.300000       0.000063
     1830.400000       0.000063
     1830.500000       0.000063
     1830.600000       0.000061
     1830.700000       0.000057
     1830.800000       0.000052
     1830.900000       0.000046
     1831.000000       0.000041
     1831.100000       0.000036
     1831.200000       0.000032
     1831.300000       0.000030
     1831.400000       0.000028
     1831.500000       0.000027
     1831.600000       0.000028
     1831.700000       0.000031
     1831.800000       0.000036
     1831.900000       0.000041
     1832.000000       0.000048
     1832.100000       0.000056
     1832.200000       0.000063
     1832.300000       0.000071
     1832.400000       0.000078
     1832.500000       0.000083
     1832.600000       0.000087
     1832.700000       0.000089
     1832.800000       0.000091
     1832.900000       0.000090
     1833.000000       0.000088
     1833.100000       0.000083
     1833.200000       0.000079
     1833.300000       0.000074
     1833.400000       0.000067
     1833.500000       0.000061
     1833.600000       0.000056
     1833.700000       0.000051
     1833.800000       0.000048
     1833.900000       0.000047
     1834.000000       0.000047
     1834.100000       0.000048
     1834.200000       0.000048
     1834.300000       0.000051
     1834.400000       0.000055
     1834.500000       0.000060
     1834.600000       0.000065
     1834.700000       0.000070
     1834.800000       0.000074
     1834.900000       0.000076
     1835.000000       0.000077
     1835.100000       0.000078
     1835.200000       0.000079
     1835.300000       0.000077
     1835.400000       0.000074
     1835.500000       0.000069
     1835.600000       0.000065
     1835.700000       0.000060
     1835.800000       0.000054
     1835.900000       0.000048
     1836.000000       0.000043
     1836.100000       0.000039
     1836.200000       0.000037
     1836.300000       0.000037
     1836.400000       0.000036
     1836.500000       0.000036
     1836.600000       0.000037
     1836.700000       0.000040
     1836.800000       0.000044
     1836.900000       0.000048
     1837.000000       0.000052
     1837.100000       0.000056
     1837.200000       0.000059
     1837.300000       0.000062
     1837.400000       0.000064
     1837.500000       0.000065
     1837.600000       0.000066
     1837.700000       0.000065
     1837.800000       0.000063
     1837.900000       0.000061
     1838.000000       0.000059
     1838.100000       0.000056
     1838.200000       0.000053
     1838.300000       0.000051
     1838.400000       0.000050
     1838.500000       0.000048
     1838.600000       0.000048
     1838.700000       0.000049
     1838.800000       0.000050
     1838.900000       0.000053
     1839.000000       0.000055
     1839.100000       0.000059
     1839.200000       0.000063
     1839.300000       0.000066
     1839.400000       0.000070
     1839.500000       0.000072
     1839.600000       0.000074
     1839.700000       0.000073
     1839.800000       0.000073
     1839.900000       0.000072
     1840.000000       0.000071
     1840.100000       0.000067
     1840.200000       0.000063
     1840.300000       0.000059
     1840.400000       0.000054
     1840.500000       0.000049
     1840.600000       0.000045
     1840.700000       0.000042
     1840.800000       0.000040
     1840.900000       0.000038
     1841.000000       0.000038
