02, goes_14_imager_03.flt Release RevH plus STAR correction
Number of data points:
5201
Wavenumber (cm-1)   Filter response
     1250.000000       0.000000
     1250.100000       0.000000
     1250.200000       0.000000
     1250.300000       0.000000
     1250.400000       0.000000
     1250.500000       0.000000
     1250.600000       0.000000
     1250.700000       0.000000
     1250.800000       0.000000
     1250.900000       0.000000
     1251.000000       0.000000
     1251.100000       0.000000
     1251.200000       0.000000
     1251.300000       0.000000
     1251.400000       0.000000
     1251.500000       0.000000
     1251.600000       0.000000
     1251.700000       0.000000
     1251.800000       0.000000
     1251.900000       0.000000
     1252.000000       0.000000
     1252.100000       0.000000
     1252.200000       0.000000
     1252.300000       0.000000
     1252.400000       0.000000
     1252.500000       0.000000
     1252.600000       0.000000
     1252.700000       0.000000
     1252.800000       0.000000
     1252.900000       0.000000
     1253.000000       0.000000
     1253.100000       0.000000
     1253.200000       0.000000
     1253.300000       0.000000
     1253.400000       0.000000
     1253.500000       0.000000
     1253.600000       0.000000
     1253.700000       0.000000
     1253.800000       0.000000
     1253.900000       0.000000
     1254.000000       0.000000
     1254.100000       0.000000
     1254.200000       0.000000
     1254.300000       0.000000
     1254.400000       0.000000
     1254.500000       0.000000
     1254.600000       0.000000
     1254.700000       0.000000
     1254.800000       0.000000
     1254.900000       0.000000
     1255.000000       0.000000
     1255.100000       0.000000
     1255.200000       0.000000
     1255.300000       0.000000
     1255.400000       0.000000
     1255.500000       0.000000
     1255.600000       0.000000
     1255.700000       0.000000
     1255.800000       0.000000
     1255.900000       0.000000
     1256.000000       0.000000
     1256.100000       0.000000
     1256.200000       0.000000
     1256.300000       0.000000
     1256.400000       0.000000
     1256.500000       0.000000
     1256.600000       0.000000
     1256.700000       0.000000
     1256.800000       0.000000
     1256.900000       0.000000
     1257.000000       0.000000
     1257.100000       0.000000
     1257.200000       0.000000
     1257.300000       0.000000
     1257.400000       0.000000
     1257.500000       0.000000
     1257.600000       0.000000
     1257.700000       0.000000
     1257.800000       0.000000
     1257.900000       0.000000
     1258.000000       0.000000
     1258.100000       0.000000
     1258.200000       0.000000
     1258.300000       0.000000
     1258.400000       0.000000
     1258.500000       0.000000
     1258.600000       0.000000
     1258.700000       0.000000
     1258.800000       0.000000
     1258.900000       0.000000
     1259.000000       0.000000
     1259.100000       0.000000
     1259.200000       0.000000
     1259.300000       0.000000
     1259.400000       0.000000
     1259.500000       0.000000
     1259.600000       0.000000
     1259.700000       0.000000
     1259.800000       0.000000
     1259.900000       0.000000
     1260.000000       0.000000
     1260.100000       0.000000
     1260.200000       0.000000
     1260.300000       0.000000
     1260.400000       0.000000
     1260.500000       0.000000
     1260.600000       0.000000
     1260.700000       0.000000
     1260.800000       0.000000
     1260.900000       0.000000
     1261.000000       0.000000
     1261.100000       0.000000
     1261.200000       0.000000
     1261.300000       0.000000
     1261.400000       0.000000
     1261.500000       0.000000
     1261.600000       0.000000
     1261.700000       0.000000
     1261.800000       0.000000
     1261.900000       0.000000
     1262.000000       0.000000
     1262.100000       0.000000
     1262.200000       0.000000
     1262.300000       0.000000
     1262.400000       0.000000
     1262.500000       0.000000
     1262.600000       0.000000
     1262.700000       0.000000
     1262.800000       0.000000
     1262.900000       0.000000
     1263.000000       0.000000
     1263.100000       0.000000
     1263.200000       0.000000
     1263.300000       0.000000
     1263.400000       0.000000
     1263.500000       0.000000
     1263.600000       0.000000
     1263.700000       0.000000
     1263.800000       0.000000
     1263.900000       0.000000
     1264.000000       0.000000
     1264.100000       0.000000
     1264.200000       0.000000
     1264.300000       0.000000
     1264.400000       0.000000
     1264.500000       0.000000
     1264.600000       0.000000
     1264.700000       0.000000
     1264.800000       0.000000
     1264.900000       0.000000
     1265.000000       0.000000
     1265.100000       0.000000
     1265.200000       0.000000
     1265.300000       0.000000
     1265.400000       0.000000
     1265.500000       0.000000
     1265.600000       0.000000
     1265.700000       0.000000
     1265.800000       0.000000
     1265.900000       0.000001
     1266.000000       0.000001
     1266.100000       0.000001
     1266.200000       0.000001
     1266.300000       0.000001
     1266.400000       0.000001
     1266.500000       0.000001
     1266.600000       0.000001
     1266.700000       0.000001
     1266.800000       0.000001
     1266.900000       0.000001
     1267.000000       0.000001
     1267.100000       0.000001
     1267.200000       0.000001
     1267.300000       0.000001
     1267.400000       0.000001
     1267.500000       0.000001
     1267.600000       0.000001
     1267.700000       0.000001
     1267.800000       0.000001
     1267.900000       0.000002
     1268.000000       0.000002
     1268.100000       0.000002
     1268.200000       0.000002
     1268.300000       0.000002
     1268.400000       0.000002
     1268.500000       0.000002
     1268.600000       0.000002
     1268.700000       0.000002
     1268.800000       0.000002
     1268.900000       0.000002
     1269.000000       0.000002
     1269.100000       0.000002
     1269.200000       0.000002
     1269.300000       0.000003
     1269.400000       0.000003
     1269.500000       0.000003
     1269.600000       0.000003
     1269.700000       0.000003
     1269.800000       0.000003
     1269.900000       0.000003
     1270.000000       0.000003
     1270.100000       0.000003
     1270.200000       0.000003
     1270.300000       0.000004
     1270.400000       0.000004
     1270.500000       0.000004
     1270.600000       0.000004
     1270.700000       0.000004
     1270.800000       0.000004
     1270.900000       0.000004
     1271.000000       0.000004
     1271.100000       0.000004
     1271.200000       0.000005
     1271.300000       0.000005
     1271.400000       0.000005
     1271.500000       0.000005
     1271.600000       0.000005
     1271.700000       0.000005
     1271.800000       0.000005
     1271.900000       0.000005
     1272.000000       0.000005
     1272.100000       0.000005
     1272.200000       0.000005
     1272.300000       0.000005
     1272.400000       0.000006
     1272.500000       0.000006
     1272.600000       0.000006
     1272.700000       0.000006
     1272.800000       0.000006
     1272.900000       0.000006
     1273.000000       0.000006
     1273.100000       0.000006
     1273.200000       0.000006
     1273.300000       0.000006
     1273.400000       0.000007
     1273.500000       0.000007
     1273.600000       0.000007
     1273.700000       0.000007
     1273.800000       0.000007
     1273.900000       0.000007
     1274.000000       0.000007
     1274.100000       0.000008
     1274.200000       0.000008
     1274.300000       0.000008
     1274.400000       0.000008
     1274.500000       0.000008
     1274.600000       0.000008
     1274.700000       0.000009
     1274.800000       0.000009
     1274.900000       0.000009
     1275.000000       0.000009
     1275.100000       0.000010
     1275.200000       0.000010
     1275.300000       0.000010
     1275.400000       0.000010
     1275.500000       0.000011
     1275.600000       0.000011
     1275.700000       0.000011
     1275.800000       0.000012
     1275.900000       0.000012
     1276.000000       0.000012
     1276.100000       0.000012
     1276.200000       0.000013
     1276.300000       0.000013
     1276.400000       0.000014
     1276.500000       0.000014
     1276.600000       0.000014
     1276.700000       0.000015
     1276.800000       0.000015
     1276.900000       0.000015
     1277.000000       0.000016
     1277.100000       0.000016
     1277.200000       0.000016
     1277.300000       0.000017
     1277.400000       0.000017
     1277.500000       0.000018
     1277.600000       0.000018
     1277.700000       0.000018
     1277.800000       0.000019
     1277.900000       0.000019
     1278.000000       0.000020
     1278.100000       0.000020
     1278.200000       0.000021
     1278.300000       0.000021
     1278.400000       0.000022
     1278.500000       0.000022
     1278.600000       0.000023
     1278.700000       0.000023
     1278.800000       0.000024
     1278.900000       0.000024
     1279.000000       0.000025
     1279.100000       0.000026
     1279.200000       0.000026
     1279.300000       0.000027
     1279.400000       0.000028
     1279.500000       0.000029
     1279.600000       0.000030
     1279.700000       0.000030
     1279.800000       0.000031
     1279.900000       0.000032
     1280.000000       0.000033
     1280.100000       0.000034
     1280.200000       0.000035
     1280.300000       0.000035
     1280.400000       0.000036
     1280.500000       0.000037
     1280.600000       0.000038
     1280.700000       0.000039
     1280.800000       0.000039
     1280.900000       0.000040
     1281.000000       0.000041
     1281.100000       0.000042
     1281.200000       0.000042
     1281.300000       0.000043
     1281.400000       0.000044
     1281.500000       0.000045
     1281.600000       0.000045
     1281.700000       0.000046
     1281.800000       0.000047
     1281.900000       0.000048
     1282.000000       0.000049
     1282.100000       0.000050
     1282.200000       0.000051
     1282.300000       0.000052
     1282.400000       0.000053
     1282.500000       0.000054
     1282.600000       0.000055
     1282.700000       0.000056
     1282.800000       0.000058
     1282.900000       0.000059
     1283.000000       0.000060
     1283.100000       0.000061
     1283.200000       0.000062
     1283.300000       0.000063
     1283.400000       0.000065
     1283.500000       0.000066
     1283.600000       0.000067
     1283.700000       0.000069
     1283.800000       0.000070
     1283.900000       0.000072
     1284.000000       0.000074
     1284.100000       0.000075
     1284.200000       0.000077
     1284.300000       0.000078
     1284.400000       0.000080
     1284.500000       0.000082
     1284.600000       0.000084
     1284.700000       0.000086
     1284.800000       0.000087
     1284.900000       0.000089
     1285.000000       0.000091
     1285.100000       0.000093
     1285.200000       0.000095
     1285.300000       0.000097
     1285.400000       0.000099
     1285.500000       0.000102
     1285.600000       0.000104
     1285.700000       0.000106
     1285.800000       0.000108
     1285.900000       0.000111
     1286.000000       0.000113
     1286.100000       0.000116
     1286.200000       0.000118
     1286.300000       0.000121
     1286.400000       0.000124
     1286.500000       0.000126
     1286.600000       0.000129
     1286.700000       0.000132
     1286.800000       0.000135
     1286.900000       0.000138
     1287.000000       0.000142
     1287.100000       0.000145
     1287.200000       0.000148
     1287.300000       0.000152
     1287.400000       0.000156
     1287.500000       0.000159
     1287.600000       0.000163
     1287.700000       0.000167
     1287.800000       0.000171
     1287.900000       0.000175
     1288.000000       0.000179
     1288.100000       0.000184
     1288.200000       0.000188
     1288.300000       0.000192
     1288.400000       0.000197
     1288.500000       0.000201
     1288.600000       0.000206
     1288.700000       0.000210
     1288.800000       0.000215
     1288.900000       0.000220
     1289.000000       0.000224
     1289.100000       0.000229
     1289.200000       0.000234
     1289.300000       0.000239
     1289.400000       0.000244
     1289.500000       0.000249
     1289.600000       0.000253
     1289.700000       0.000258
     1289.800000       0.000263
     1289.900000       0.000268
     1290.000000       0.000273
     1290.100000       0.000277
     1290.200000       0.000282
     1290.300000       0.000287
     1290.400000       0.000291
     1290.500000       0.000296
     1290.600000       0.000301
     1290.700000       0.000306
     1290.800000       0.000310
     1290.900000       0.000315
     1291.000000       0.000320
     1291.100000       0.000324
     1291.200000       0.000329
     1291.300000       0.000334
     1291.400000       0.000339
     1291.500000       0.000344
     1291.600000       0.000349
     1291.700000       0.000354
     1291.800000       0.000359
     1291.900000       0.000364
     1292.000000       0.000369
     1292.100000       0.000375
     1292.200000       0.000381
     1292.300000       0.000386
     1292.400000       0.000392
     1292.500000       0.000398
     1292.600000       0.000405
     1292.700000       0.000411
     1292.800000       0.000417
     1292.900000       0.000424
     1293.000000       0.000431
     1293.100000       0.000438
     1293.200000       0.000445
     1293.300000       0.000452
     1293.400000       0.000459
     1293.500000       0.000467
     1293.600000       0.000474
     1293.700000       0.000482
     1293.800000       0.000490
     1293.900000       0.000498
     1294.000000       0.000506
     1294.100000       0.000514
     1294.200000       0.000522
     1294.300000       0.000531
     1294.400000       0.000539
     1294.500000       0.000548
     1294.600000       0.000557
     1294.700000       0.000566
     1294.800000       0.000575
     1294.900000       0.000584
     1295.000000       0.000593
     1295.100000       0.000603
     1295.200000       0.000612
     1295.300000       0.000622
     1295.400000       0.000632
     1295.500000       0.000642
     1295.600000       0.000652
     1295.700000       0.000662
     1295.800000       0.000672
     1295.900000       0.000683
     1296.000000       0.000693
     1296.100000       0.000703
     1296.200000       0.000714
     1296.300000       0.000724
     1296.400000       0.000735
     1296.500000       0.000746
     1296.600000       0.000756
     1296.700000       0.000767
     1296.800000       0.000777
     1296.900000       0.000788
     1297.000000       0.000798
     1297.100000       0.000808
     1297.200000       0.000819
     1297.300000       0.000829
     1297.400000       0.000839
     1297.500000       0.000849
     1297.600000       0.000860
     1297.700000       0.000870
     1297.800000       0.000879
     1297.900000       0.000889
     1298.000000       0.000899
     1298.100000       0.000909
     1298.200000       0.000918
     1298.300000       0.000928
     1298.400000       0.000937
     1298.500000       0.000947
     1298.600000       0.000956
     1298.700000       0.000965
     1298.800000       0.000975
     1298.900000       0.000984
     1299.000000       0.000993
     1299.100000       0.001002
     1299.200000       0.001011
     1299.300000       0.001020
     1299.400000       0.001029
     1299.500000       0.001037
     1299.600000       0.001046
     1299.700000       0.001055
     1299.800000       0.001064
     1299.900000       0.001073
     1300.000000       0.001081
     1300.100000       0.001090
     1300.200000       0.001099
     1300.300000       0.001108
     1300.400000       0.001117
     1300.500000       0.001126
     1300.600000       0.001135
     1300.700000       0.001144
     1300.800000       0.001154
     1300.900000       0.001163
     1301.000000       0.001173
     1301.100000       0.001183
     1301.200000       0.001192
     1301.300000       0.001203
     1301.400000       0.001213
     1301.500000       0.001224
     1301.600000       0.001234
     1301.700000       0.001246
     1301.800000       0.001257
     1301.900000       0.001268
     1302.000000       0.001280
     1302.100000       0.001291
     1302.200000       0.001303
     1302.300000       0.001315
     1302.400000       0.001327
     1302.500000       0.001339
     1302.600000       0.001351
     1302.700000       0.001363
     1302.800000       0.001375
     1302.900000       0.001387
     1303.000000       0.001400
     1303.100000       0.001412
     1303.200000       0.001425
     1303.300000       0.001438
     1303.400000       0.001451
     1303.500000       0.001465
     1303.600000       0.001478
     1303.700000       0.001493
     1303.800000       0.001507
     1303.900000       0.001522
     1304.000000       0.001537
     1304.100000       0.001552
     1304.200000       0.001567
     1304.300000       0.001583
     1304.400000       0.001599
     1304.500000       0.001615
     1304.600000       0.001631
     1304.700000       0.001647
     1304.800000       0.001664
     1304.900000       0.001681
     1305.000000       0.001697
     1305.100000       0.001714
     1305.200000       0.001731
     1305.300000       0.001749
     1305.400000       0.001766
     1305.500000       0.001783
     1305.600000       0.001800
     1305.700000       0.001818
     1305.800000       0.001835
     1305.900000       0.001853
     1306.000000       0.001870
     1306.100000       0.001888
     1306.200000       0.001905
     1306.300000       0.001922
     1306.400000       0.001940
     1306.500000       0.001957
     1306.600000       0.001974
     1306.700000       0.001991
     1306.800000       0.002008
     1306.900000       0.002025
     1307.000000       0.002042
     1307.100000       0.002059
     1307.200000       0.002076
     1307.300000       0.002093
     1307.400000       0.002110
     1307.500000       0.002127
     1307.600000       0.002144
     1307.700000       0.002161
     1307.800000       0.002179
     1307.900000       0.002196
     1308.000000       0.002213
     1308.100000       0.002231
     1308.200000       0.002249
     1308.300000       0.002267
     1308.400000       0.002285
     1308.500000       0.002303
     1308.600000       0.002322
     1308.700000       0.002340
     1308.800000       0.002359
     1308.900000       0.002378
     1309.000000       0.002398
     1309.100000       0.002417
     1309.200000       0.002437
     1309.300000       0.002457
     1309.400000       0.002477
     1309.500000       0.002497
     1309.600000       0.002518
     1309.700000       0.002539
     1309.800000       0.002560
     1309.900000       0.002581
     1310.000000       0.002602
     1310.100000       0.002624
     1310.200000       0.002645
     1310.300000       0.002667
     1310.400000       0.002689
     1310.500000       0.002712
     1310.600000       0.002734
     1310.700000       0.002756
     1310.800000       0.002779
     1310.900000       0.002802
     1311.000000       0.002824
     1311.100000       0.002847
     1311.200000       0.002871
     1311.300000       0.002894
     1311.400000       0.002918
     1311.500000       0.002942
     1311.600000       0.002966
     1311.700000       0.002990
     1311.800000       0.003016
     1311.900000       0.003041
     1312.000000       0.003067
     1312.100000       0.003093
     1312.200000       0.003120
     1312.300000       0.003148
     1312.400000       0.003175
     1312.500000       0.003203
     1312.600000       0.003232
     1312.700000       0.003260
     1312.800000       0.003289
     1312.900000       0.003319
     1313.000000       0.003348
     1313.100000       0.003378
     1313.200000       0.003408
     1313.300000       0.003438
     1313.400000       0.003468
     1313.500000       0.003498
     1313.600000       0.003529
     1313.700000       0.003560
     1313.800000       0.003591
     1313.900000       0.003623
     1314.000000       0.003654
     1314.100000       0.003686
     1314.200000       0.003719
     1314.300000       0.003751
     1314.400000       0.003784
     1314.500000       0.003816
     1314.600000       0.003849
     1314.700000       0.003883
     1314.800000       0.003916
     1314.900000       0.003949
     1315.000000       0.003983
     1315.100000       0.004016
     1315.200000       0.004049
     1315.300000       0.004083
     1315.400000       0.004117
     1315.500000       0.004150
     1315.600000       0.004184
     1315.700000       0.004217
     1315.800000       0.004251
     1315.900000       0.004285
     1316.000000       0.004318
     1316.100000       0.004352
     1316.200000       0.004386
     1316.300000       0.004420
     1316.400000       0.004454
     1316.500000       0.004488
     1316.600000       0.004522
     1316.700000       0.004556
     1316.800000       0.004591
     1316.900000       0.004626
     1317.000000       0.004662
     1317.100000       0.004698
     1317.200000       0.004735
     1317.300000       0.004772
     1317.400000       0.004810
     1317.500000       0.004849
     1317.600000       0.004888
     1317.700000       0.004927
     1317.800000       0.004967
     1317.900000       0.005008
     1318.000000       0.005048
     1318.100000       0.005089
     1318.200000       0.005130
     1318.300000       0.005172
     1318.400000       0.005213
     1318.500000       0.005255
     1318.600000       0.005298
     1318.700000       0.005340
     1318.800000       0.005383
     1318.900000       0.005426
     1319.000000       0.005469
     1319.100000       0.005513
     1319.200000       0.005557
     1319.300000       0.005601
     1319.400000       0.005646
     1319.500000       0.005691
     1319.600000       0.005737
     1319.700000       0.005783
     1319.800000       0.005830
     1319.900000       0.005877
     1320.000000       0.005924
     1320.100000       0.005972
     1320.200000       0.006020
     1320.300000       0.006069
     1320.400000       0.006118
     1320.500000       0.006167
     1320.600000       0.006217
     1320.700000       0.006267
     1320.800000       0.006318
     1320.900000       0.006369
     1321.000000       0.006421
     1321.100000       0.006472
     1321.200000       0.006524
     1321.300000       0.006577
     1321.400000       0.006629
     1321.500000       0.006682
     1321.600000       0.006735
     1321.700000       0.006788
     1321.800000       0.006842
     1321.900000       0.006897
     1322.000000       0.006951
     1322.100000       0.007006
     1322.200000       0.007062
     1322.300000       0.007119
     1322.400000       0.007176
     1322.500000       0.007234
     1322.600000       0.007292
     1322.700000       0.007352
     1322.800000       0.007412
     1322.900000       0.007473
     1323.000000       0.007534
     1323.100000       0.007596
     1323.200000       0.007658
     1323.300000       0.007721
     1323.400000       0.007785
     1323.500000       0.007848
     1323.600000       0.007913
     1323.700000       0.007977
     1323.800000       0.008043
     1323.900000       0.008108
     1324.000000       0.008174
     1324.100000       0.008241
     1324.200000       0.008308
     1324.300000       0.008376
     1324.400000       0.008445
     1324.500000       0.008514
     1324.600000       0.008584
     1324.700000       0.008655
     1324.800000       0.008727
     1324.900000       0.008799
     1325.000000       0.008873
     1325.100000       0.008947
     1325.200000       0.009022
     1325.300000       0.009098
     1325.400000       0.009174
     1325.500000       0.009252
     1325.600000       0.009331
     1325.700000       0.009410
     1325.800000       0.009491
     1325.900000       0.009572
     1326.000000       0.009655
     1326.100000       0.009738
     1326.200000       0.009823
     1326.300000       0.009908
     1326.400000       0.009994
     1326.500000       0.010080
     1326.600000       0.010168
     1326.700000       0.010256
     1326.800000       0.010346
     1326.900000       0.010436
     1327.000000       0.010527
     1327.100000       0.010619
     1327.200000       0.010712
     1327.300000       0.010806
     1327.400000       0.010901
     1327.500000       0.010997
     1327.600000       0.011094
     1327.700000       0.011193
     1327.800000       0.011292
     1327.900000       0.011393
     1328.000000       0.011495
     1328.100000       0.011598
     1328.200000       0.011703
     1328.300000       0.011808
     1328.400000       0.011914
     1328.500000       0.012022
     1328.600000       0.012130
     1328.700000       0.012239
     1328.800000       0.012350
     1328.900000       0.012461
     1329.000000       0.012573
     1329.100000       0.012686
     1329.200000       0.012800
     1329.300000       0.012915
     1329.400000       0.013031
     1329.500000       0.013147
     1329.600000       0.013265
     1329.700000       0.013384
     1329.800000       0.013503
     1329.900000       0.013624
     1330.000000       0.013746
     1330.100000       0.013868
     1330.200000       0.013992
     1330.300000       0.014117
     1330.400000       0.014243
     1330.500000       0.014370
     1330.600000       0.014499
     1330.700000       0.014628
     1330.800000       0.014759
     1330.900000       0.014891
     1331.000000       0.015025
     1331.100000       0.015159
     1331.200000       0.015296
     1331.300000       0.015433
     1331.400000       0.015572
     1331.500000       0.015713
     1331.600000       0.015855
     1331.700000       0.015998
     1331.800000       0.016143
     1331.900000       0.016289
     1332.000000       0.016437
     1332.100000       0.016587
     1332.200000       0.016738
     1332.300000       0.016890
     1332.400000       0.017044
     1332.500000       0.017200
     1332.600000       0.017357
     1332.700000       0.017516
     1332.800000       0.017677
     1332.900000       0.017839
     1333.000000       0.018003
     1333.100000       0.018169
     1333.200000       0.018336
     1333.300000       0.018505
     1333.400000       0.018676
     1333.500000       0.018848
     1333.600000       0.019022
     1333.700000       0.019196
     1333.800000       0.019373
     1333.900000       0.019551
     1334.000000       0.019730
     1334.100000       0.019911
     1334.200000       0.020093
     1334.300000       0.020277
     1334.400000       0.020463
     1334.500000       0.020650
     1334.600000       0.020838
     1334.700000       0.021028
     1334.800000       0.021220
     1334.900000       0.021414
     1335.000000       0.021609
     1335.100000       0.021807
     1335.200000       0.022006
     1335.300000       0.022208
     1335.400000       0.022411
     1335.500000       0.022616
     1335.600000       0.022822
     1335.700000       0.023030
     1335.800000       0.023240
     1335.900000       0.023451
     1336.000000       0.023663
     1336.100000       0.023876
     1336.200000       0.024091
     1336.300000       0.024308
     1336.400000       0.024526
     1336.500000       0.024746
     1336.600000       0.024968
     1336.700000       0.025191
     1336.800000       0.025417
     1336.900000       0.025644
     1337.000000       0.025874
     1337.100000       0.026107
     1337.200000       0.026341
     1337.300000       0.026579
     1337.400000       0.026818
     1337.500000       0.027059
     1337.600000       0.027303
     1337.700000       0.027548
     1337.800000       0.027796
     1337.900000       0.028045
     1338.000000       0.028295
     1338.100000       0.028548
     1338.200000       0.028803
     1338.300000       0.029060
     1338.400000       0.029319
     1338.500000       0.029581
     1338.600000       0.029845
     1338.700000       0.030112
     1338.800000       0.030383
     1338.900000       0.030657
     1339.000000       0.030934
     1339.100000       0.031216
     1339.200000       0.031501
     1339.300000       0.031791
     1339.400000       0.032084
     1339.500000       0.032381
     1339.600000       0.032683
     1339.700000       0.032989
     1339.800000       0.033300
     1339.900000       0.033615
     1340.000000       0.033934
     1340.100000       0.034259
     1340.200000       0.034589
     1340.300000       0.034923
     1340.400000       0.035262
     1340.500000       0.035606
     1340.600000       0.035954
     1340.700000       0.036307
     1340.800000       0.036666
     1340.900000       0.037029
     1341.000000       0.037397
     1341.100000       0.037770
     1341.200000       0.038148
     1341.300000       0.038531
     1341.400000       0.038919
     1341.500000       0.039311
     1341.600000       0.039707
     1341.700000       0.040109
     1341.800000       0.040515
     1341.900000       0.040926
     1342.000000       0.041342
     1342.100000       0.041762
     1342.200000       0.042188
     1342.300000       0.042619
     1342.400000       0.043055
     1342.500000       0.043495
     1342.600000       0.043941
     1342.700000       0.044392
     1342.800000       0.044849
     1342.900000       0.045312
     1343.000000       0.045780
     1343.100000       0.046254
     1343.200000       0.046732
     1343.300000       0.047215
     1343.400000       0.047701
     1343.500000       0.048191
     1343.600000       0.048683
     1343.700000       0.049177
     1343.800000       0.049673
     1343.900000       0.050171
     1344.000000       0.050669
     1344.100000       0.051169
     1344.200000       0.051670
     1344.300000       0.052175
     1344.400000       0.052682
     1344.500000       0.053192
     1344.600000       0.053705
     1344.700000       0.054223
     1344.800000       0.054747
     1344.900000       0.055275
     1345.000000       0.055809
     1345.100000       0.056348
     1345.200000       0.056893
     1345.300000       0.057443
     1345.400000       0.057998
     1345.500000       0.058559
     1345.600000       0.059124
     1345.700000       0.059695
     1345.800000       0.060271
     1345.900000       0.060852
     1346.000000       0.061439
     1346.100000       0.062033
     1346.200000       0.062632
     1346.300000       0.063239
     1346.400000       0.063853
     1346.500000       0.064475
     1346.600000       0.065106
     1346.700000       0.065746
     1346.800000       0.066397
     1346.900000       0.067058
     1347.000000       0.067730
     1347.100000       0.068414
     1347.200000       0.069109
     1347.300000       0.069816
     1347.400000       0.070535
     1347.500000       0.071265
     1347.600000       0.072008
     1347.700000       0.072764
     1347.800000       0.073534
     1347.900000       0.074317
     1348.000000       0.075114
     1348.100000       0.075926
     1348.200000       0.076751
     1348.300000       0.077592
     1348.400000       0.078446
     1348.500000       0.079315
     1348.600000       0.080198
     1348.700000       0.081098
     1348.800000       0.082015
     1348.900000       0.082947
     1349.000000       0.083894
     1349.100000       0.084857
     1349.200000       0.085834
     1349.300000       0.086826
     1349.400000       0.087829
     1349.500000       0.088845
     1349.600000       0.089872
     1349.700000       0.090911
     1349.800000       0.091963
     1349.900000       0.093024
     1350.000000       0.094096
     1350.100000       0.095179
     1350.200000       0.096271
     1350.300000       0.097375
     1350.400000       0.098487
     1350.500000       0.099609
     1350.600000       0.100742
     1350.700000       0.101884
     1350.800000       0.103038
     1350.900000       0.104200
     1351.000000       0.105370
     1351.100000       0.106546
     1351.200000       0.107728
     1351.300000       0.108915
     1351.400000       0.110107
     1351.500000       0.111300
     1351.600000       0.112496
     1351.700000       0.113693
     1351.800000       0.114894
     1351.900000       0.116094
     1352.000000       0.117297
     1352.100000       0.118503
     1352.200000       0.119711
     1352.300000       0.120925
     1352.400000       0.122140
     1352.500000       0.123359
     1352.600000       0.124583
     1352.700000       0.125811
     1352.800000       0.127045
     1352.900000       0.128281
     1353.000000       0.129521
     1353.100000       0.130764
     1353.200000       0.132011
     1353.300000       0.133262
     1353.400000       0.134514
     1353.500000       0.135769
     1353.600000       0.137027
     1353.700000       0.138290
     1353.800000       0.139558
     1353.900000       0.140831
     1354.000000       0.142110
     1354.100000       0.143397
     1354.200000       0.144691
     1354.300000       0.145996
     1354.400000       0.147310
     1354.500000       0.148634
     1354.600000       0.149968
     1354.700000       0.151313
     1354.800000       0.152669
     1354.900000       0.154032
     1355.000000       0.155405
     1355.100000       0.156787
     1355.200000       0.158178
     1355.300000       0.159579
     1355.400000       0.160988
     1355.500000       0.162406
     1355.600000       0.163832
     1355.700000       0.165267
     1355.800000       0.166713
     1355.900000       0.168165
     1356.000000       0.169627
     1356.100000       0.171098
     1356.200000       0.172579
     1356.300000       0.174073
     1356.400000       0.175576
     1356.500000       0.177092
     1356.600000       0.178617
     1356.700000       0.180154
     1356.800000       0.181703
     1356.900000       0.183260
     1357.000000       0.184829
     1357.100000       0.186408
     1357.200000       0.187998
     1357.300000       0.189601
     1357.400000       0.191215
     1357.500000       0.192839
     1357.600000       0.194475
     1357.700000       0.196123
     1357.800000       0.197784
     1357.900000       0.199454
     1358.000000       0.201136
     1358.100000       0.202830
     1358.200000       0.204536
     1358.300000       0.206255
     1358.400000       0.207983
     1358.500000       0.209722
     1358.600000       0.211473
     1358.700000       0.213234
     1358.800000       0.215009
     1358.900000       0.216793
     1359.000000       0.218588
     1359.100000       0.220394
     1359.200000       0.222213
     1359.300000       0.224045
     1359.400000       0.225887
     1359.500000       0.227741
     1359.600000       0.229607
     1359.700000       0.231487
     1359.800000       0.233381
     1359.900000       0.235287
     1360.000000       0.237208
     1360.100000       0.239144
     1360.200000       0.241095
     1360.300000       0.243064
     1360.400000       0.245045
     1360.500000       0.247039
     1360.600000       0.249047
     1360.700000       0.251067
     1360.800000       0.253102
     1360.900000       0.255147
     1361.000000       0.257205
     1361.100000       0.259274
     1361.200000       0.261356
     1361.300000       0.263454
     1361.400000       0.265563
     1361.500000       0.267686
     1361.600000       0.269826
     1361.700000       0.271982
     1361.800000       0.274159
     1361.900000       0.276352
     1362.000000       0.278566
     1362.100000       0.280802
     1362.200000       0.283061
     1362.300000       0.285344
     1362.400000       0.287645
     1362.500000       0.289966
     1362.600000       0.292307
     1362.700000       0.294667
     1362.800000       0.297048
     1362.900000       0.299447
     1363.000000       0.301864
     1363.100000       0.304302
     1363.200000       0.306760
     1363.300000       0.309240
     1363.400000       0.311737
     1363.500000       0.314254
     1363.600000       0.316790
     1363.700000       0.319347
     1363.800000       0.321929
     1363.900000       0.324529
     1364.000000       0.327150
     1364.100000       0.329795
     1364.200000       0.332462
     1364.300000       0.335154
     1364.400000       0.337865
     1364.500000       0.340598
     1364.600000       0.343352
     1364.700000       0.346127
     1364.800000       0.348927
     1364.900000       0.351745
     1365.000000       0.354586
     1365.100000       0.357450
     1365.200000       0.360336
     1365.300000       0.363247
     1365.400000       0.366175
     1365.500000       0.369123
     1365.600000       0.372090
     1365.700000       0.375074
     1365.800000       0.378080
     1365.900000       0.381099
     1366.000000       0.384134
     1366.100000       0.387187
     1366.200000       0.390256
     1366.300000       0.393345
     1366.400000       0.396446
     1366.500000       0.399561
     1366.600000       0.402690
     1366.700000       0.405831
     1366.800000       0.408987
     1366.900000       0.412152
     1367.000000       0.415327
     1367.100000       0.418513
     1367.200000       0.421709
     1367.300000       0.424918
     1367.400000       0.428135
     1367.500000       0.431360
     1367.600000       0.434594
     1367.700000       0.437837
     1367.800000       0.441093
     1367.900000       0.444354
     1368.000000       0.447624
     1368.100000       0.450903
     1368.200000       0.454193
     1368.300000       0.457497
     1368.400000       0.460807
     1368.500000       0.464127
     1368.600000       0.467457
     1368.700000       0.470794
     1368.800000       0.474144
     1368.900000       0.477496
     1369.000000       0.480855
     1369.100000       0.484221
     1369.200000       0.487592
     1369.300000       0.490973
     1369.400000       0.494354
     1369.500000       0.497740
     1369.600000       0.501131
     1369.700000       0.504529
     1369.800000       0.507938
     1369.900000       0.511348
     1370.000000       0.514765
     1370.100000       0.518188
     1370.200000       0.521618
     1370.300000       0.525058
     1370.400000       0.528499
     1370.500000       0.531946
     1370.600000       0.535397
     1370.700000       0.538852
     1370.800000       0.542314
     1370.900000       0.545773
     1371.000000       0.549234
     1371.100000       0.552695
     1371.200000       0.556156
     1371.300000       0.559620
     1371.400000       0.563079
     1371.500000       0.566535
     1371.600000       0.569988
     1371.700000       0.573440
     1371.800000       0.576894
     1371.900000       0.580342
     1372.000000       0.583788
     1372.100000       0.587233
     1372.200000       0.590678
     1372.300000       0.594128
     1372.400000       0.597573
     1372.500000       0.601019
     1372.600000       0.604467
     1372.700000       0.607916
     1372.800000       0.611370
     1372.900000       0.614821
     1373.000000       0.618273
     1373.100000       0.621725
     1373.200000       0.625178
     1373.300000       0.628636
     1373.400000       0.632090
     1373.500000       0.635544
     1373.600000       0.638998
     1373.700000       0.642452
     1373.800000       0.645912
     1373.900000       0.649367
     1374.000000       0.652822
     1374.100000       0.656273
     1374.200000       0.659721
     1374.300000       0.663168
     1374.400000       0.666603
     1374.500000       0.670029
     1374.600000       0.673445
     1374.700000       0.676849
     1374.800000       0.680243
     1374.900000       0.683617
     1375.000000       0.686974
     1375.100000       0.690311
     1375.200000       0.693628
     1375.300000       0.696926
     1375.400000       0.700194
     1375.500000       0.703434
     1375.600000       0.706644
     1375.700000       0.709821
     1375.800000       0.712970
     1375.900000       0.716082
     1376.000000       0.719162
     1376.100000       0.722212
     1376.200000       0.725233
     1376.300000       0.728227
     1376.400000       0.731190
     1376.500000       0.734124
     1376.600000       0.737030
     1376.700000       0.739908
     1376.800000       0.742762
     1376.900000       0.745588
     1377.000000       0.748390
     1377.100000       0.751169
     1377.200000       0.753926
     1377.300000       0.756666
     1377.400000       0.759381
     1377.500000       0.762077
     1377.600000       0.764754
     1377.700000       0.767411
     1377.800000       0.770054
     1377.900000       0.772677
     1378.000000       0.775285
     1378.100000       0.777877
     1378.200000       0.780454
     1378.300000       0.783019
     1378.400000       0.785568
     1378.500000       0.788100
     1378.600000       0.790618
     1378.700000       0.793121
     1378.800000       0.795610
     1378.900000       0.798080
     1379.000000       0.800535
     1379.100000       0.802974
     1379.200000       0.805397
     1379.300000       0.807808
     1379.400000       0.810199
     1379.500000       0.812574
     1379.600000       0.814932
     1379.700000       0.817271
     1379.800000       0.819595
     1379.900000       0.821897
     1380.000000       0.824182
     1380.100000       0.826449
     1380.200000       0.828698
     1380.300000       0.830931
     1380.400000       0.833142
     1380.500000       0.835334
     1380.600000       0.837506
     1380.700000       0.839657
     1380.800000       0.841789
     1380.900000       0.843895
     1381.000000       0.845977
     1381.100000       0.848033
     1381.200000       0.850062
     1381.300000       0.852064
     1381.400000       0.854032
     1381.500000       0.855967
     1381.600000       0.857866
     1381.700000       0.859727
     1381.800000       0.861550
     1381.900000       0.863328
     1382.000000       0.865066
     1382.100000       0.866765
     1382.200000       0.868426
     1382.300000       0.870054
     1382.400000       0.871644
     1382.500000       0.873200
     1382.600000       0.874723
     1382.700000       0.876213
     1382.800000       0.877672
     1382.900000       0.879096
     1383.000000       0.880489
     1383.100000       0.881852
     1383.200000       0.883186
     1383.300000       0.884494
     1383.400000       0.885772
     1383.500000       0.887024
     1383.600000       0.888249
     1383.700000       0.889448
     1383.800000       0.890622
     1383.900000       0.891768
     1384.000000       0.892888
     1384.100000       0.893982
     1384.200000       0.895052
     1384.300000       0.896100
     1384.400000       0.897124
     1384.500000       0.898126
     1384.600000       0.899106
     1384.700000       0.900065
     1384.800000       0.901003
     1384.900000       0.901918
     1385.000000       0.902811
     1385.100000       0.903683
     1385.200000       0.904536
     1385.300000       0.905372
     1385.400000       0.906190
     1385.500000       0.906993
     1385.600000       0.907780
     1385.700000       0.908552
     1385.800000       0.909311
     1385.900000       0.910054
     1386.000000       0.910783
     1386.100000       0.911494
     1386.200000       0.912191
     1386.300000       0.912874
     1386.400000       0.913542
     1386.500000       0.914196
     1386.600000       0.914835
     1386.700000       0.915462
     1386.800000       0.916075
     1386.900000       0.916672
     1387.000000       0.917256
     1387.100000       0.917824
     1387.200000       0.918378
     1387.300000       0.918917
     1387.400000       0.919438
     1387.500000       0.919942
     1387.600000       0.920429
     1387.700000       0.920898
     1387.800000       0.921346
     1387.900000       0.921773
     1388.000000       0.922179
     1388.100000       0.922561
     1388.200000       0.922921
     1388.300000       0.923258
     1388.400000       0.923572
     1388.500000       0.923863
     1388.600000       0.924131
     1388.700000       0.924376
     1388.800000       0.924597
     1388.900000       0.924793
     1389.000000       0.924964
     1389.100000       0.925107
     1389.200000       0.925223
     1389.300000       0.925311
     1389.400000       0.925369
     1389.500000       0.925397
     1389.600000       0.925396
     1389.700000       0.925361
     1389.800000       0.925293
     1389.900000       0.925193
     1390.000000       0.925061
     1390.100000       0.924899
     1390.200000       0.924710
     1390.300000       0.924495
     1390.400000       0.924258
     1390.500000       0.924000
     1390.600000       0.923725
     1390.700000       0.923435
     1390.800000       0.923132
     1390.900000       0.922817
     1391.000000       0.922494
     1391.100000       0.922164
     1391.200000       0.921830
     1391.300000       0.921494
     1391.400000       0.921158
     1391.500000       0.920825
     1391.600000       0.920498
     1391.700000       0.920178
     1391.800000       0.919867
     1391.900000       0.919566
     1392.000000       0.919274
     1392.100000       0.918989
     1392.200000       0.918710
     1392.300000       0.918435
     1392.400000       0.918163
     1392.500000       0.917893
     1392.600000       0.917625
     1392.700000       0.917358
     1392.800000       0.917091
     1392.900000       0.916822
     1393.000000       0.916551
     1393.100000       0.916276
     1393.200000       0.915995
     1393.300000       0.915707
     1393.400000       0.915413
     1393.500000       0.915109
     1393.600000       0.914795
     1393.700000       0.914470
     1393.800000       0.914133
     1393.900000       0.913783
     1394.000000       0.913421
     1394.100000       0.913047
     1394.200000       0.912662
     1394.300000       0.912266
     1394.400000       0.911860
     1394.500000       0.911445
     1394.600000       0.911020
     1394.700000       0.910587
     1394.800000       0.910144
     1394.900000       0.909695
     1395.000000       0.909237
     1395.100000       0.908772
     1395.200000       0.908300
     1395.300000       0.907819
     1395.400000       0.907332
     1395.500000       0.906839
     1395.600000       0.906338
     1395.700000       0.905830
     1395.800000       0.905314
     1395.900000       0.904793
     1396.000000       0.904267
     1396.100000       0.903736
     1396.200000       0.903200
     1396.300000       0.902662
     1396.400000       0.902122
     1396.500000       0.901581
     1396.600000       0.901038
     1396.700000       0.900496
     1396.800000       0.899954
     1396.900000       0.899414
     1397.000000       0.898877
     1397.100000       0.898343
     1397.200000       0.897813
     1397.300000       0.897288
     1397.400000       0.896769
     1397.500000       0.896258
     1397.600000       0.895756
     1397.700000       0.895263
     1397.800000       0.894780
     1397.900000       0.894308
     1398.000000       0.893846
     1398.100000       0.893394
     1398.200000       0.892950
     1398.300000       0.892513
     1398.400000       0.892085
     1398.500000       0.891662
     1398.600000       0.891246
     1398.700000       0.890834
     1398.800000       0.890426
     1398.900000       0.890021
     1399.000000       0.889619
     1399.100000       0.889217
     1399.200000       0.888816
     1399.300000       0.888414
     1399.400000       0.888011
     1399.500000       0.887606
     1399.600000       0.887198
     1399.700000       0.886785
     1399.800000       0.886367
     1399.900000       0.885944
     1400.000000       0.885517
     1400.100000       0.885085
     1400.200000       0.884651
     1400.300000       0.884215
     1400.400000       0.883777
     1400.500000       0.883339
     1400.600000       0.882900
     1400.700000       0.882463
     1400.800000       0.882027
     1400.900000       0.881593
     1401.000000       0.881160
     1401.100000       0.880728
     1401.200000       0.880298
     1401.300000       0.879869
     1401.400000       0.879443
     1401.500000       0.879018
     1401.600000       0.878595
     1401.700000       0.878174
     1401.800000       0.877755
     1401.900000       0.877338
     1402.000000       0.876924
     1402.100000       0.876512
     1402.200000       0.876104
     1402.300000       0.875699
     1402.400000       0.875299
     1402.500000       0.874903
     1402.600000       0.874512
     1402.700000       0.874127
     1402.800000       0.873748
     1402.900000       0.873374
     1403.000000       0.873007
     1403.100000       0.872647
     1403.200000       0.872294
     1403.300000       0.871949
     1403.400000       0.871612
     1403.500000       0.871285
     1403.600000       0.870966
     1403.700000       0.870658
     1403.800000       0.870360
     1403.900000       0.870073
     1404.000000       0.869796
     1404.100000       0.869529
     1404.200000       0.869270
     1404.300000       0.869018
     1404.400000       0.868775
     1404.500000       0.868539
     1404.600000       0.868309
     1404.700000       0.868086
     1404.800000       0.867869
     1404.900000       0.867658
     1405.000000       0.867451
     1405.100000       0.867248
     1405.200000       0.867050
     1405.300000       0.866853
     1405.400000       0.866659
     1405.500000       0.866467
     1405.600000       0.866277
     1405.700000       0.866086
     1405.800000       0.865897
     1405.900000       0.865708
     1406.000000       0.865521
     1406.100000       0.865335
     1406.200000       0.865151
     1406.300000       0.864969
     1406.400000       0.864790
     1406.500000       0.864616
     1406.600000       0.864445
     1406.700000       0.864280
     1406.800000       0.864121
     1406.900000       0.863968
     1407.000000       0.863822
     1407.100000       0.863684
     1407.200000       0.863554
     1407.300000       0.863433
     1407.400000       0.863321
     1407.500000       0.863220
     1407.600000       0.863129
     1407.700000       0.863050
     1407.800000       0.862983
     1407.900000       0.862929
     1408.000000       0.862887
     1408.100000       0.862857
     1408.200000       0.862837
     1408.300000       0.862827
     1408.400000       0.862827
     1408.500000       0.862838
     1408.600000       0.862857
     1408.700000       0.862884
     1408.800000       0.862920
     1408.900000       0.862964
     1409.000000       0.863017
     1409.100000       0.863077
     1409.200000       0.863144
     1409.300000       0.863218
     1409.400000       0.863298
     1409.500000       0.863383
     1409.600000       0.863474
     1409.700000       0.863571
     1409.800000       0.863672
     1409.900000       0.863780
     1410.000000       0.863892
     1410.100000       0.864009
     1410.200000       0.864130
     1410.300000       0.864257
     1410.400000       0.864389
     1410.500000       0.864525
     1410.600000       0.864667
     1410.700000       0.864815
     1410.800000       0.864968
     1410.900000       0.865126
     1411.000000       0.865292
     1411.100000       0.865463
     1411.200000       0.865641
     1411.300000       0.865824
     1411.400000       0.866014
     1411.500000       0.866210
     1411.600000       0.866413
     1411.700000       0.866622
     1411.800000       0.866838
     1411.900000       0.867060
     1412.000000       0.867289
     1412.100000       0.867524
     1412.200000       0.867766
     1412.300000       0.868015
     1412.400000       0.868270
     1412.500000       0.868531
     1412.600000       0.868799
     1412.700000       0.869074
     1412.800000       0.869356
     1412.900000       0.869644
     1413.000000       0.869939
     1413.100000       0.870240
     1413.200000       0.870547
     1413.300000       0.870859
     1413.400000       0.871176
     1413.500000       0.871498
     1413.600000       0.871824
     1413.700000       0.872155
     1413.800000       0.872491
     1413.900000       0.872829
     1414.000000       0.873171
     1414.100000       0.873516
     1414.200000       0.873865
     1414.300000       0.874216
     1414.400000       0.874568
     1414.500000       0.874924
     1414.600000       0.875280
     1414.700000       0.875638
     1414.800000       0.875996
     1414.900000       0.876356
     1415.000000       0.876717
     1415.100000       0.877079
     1415.200000       0.877444
     1415.300000       0.877811
     1415.400000       0.878179
     1415.500000       0.878551
     1415.600000       0.878925
     1415.700000       0.879301
     1415.800000       0.879681
     1415.900000       0.880064
     1416.000000       0.880449
     1416.100000       0.880838
     1416.200000       0.881229
     1416.300000       0.881624
     1416.400000       0.882020
     1416.500000       0.882419
     1416.600000       0.882820
     1416.700000       0.883223
     1416.800000       0.883628
     1416.900000       0.884035
     1417.000000       0.884445
     1417.100000       0.884858
     1417.200000       0.885277
     1417.300000       0.885699
     1417.400000       0.886127
     1417.500000       0.886561
     1417.600000       0.887002
     1417.700000       0.887450
     1417.800000       0.887908
     1417.900000       0.888373
     1418.000000       0.888845
     1418.100000       0.889324
     1418.200000       0.889807
     1418.300000       0.890296
     1418.400000       0.890787
     1418.500000       0.891281
     1418.600000       0.891777
     1418.700000       0.892273
     1418.800000       0.892770
     1418.900000       0.893266
     1419.000000       0.893760
     1419.100000       0.894251
     1419.200000       0.894739
     1419.300000       0.895221
     1419.400000       0.895698
     1419.500000       0.896166
     1419.600000       0.896625
     1419.700000       0.897076
     1419.800000       0.897515
     1419.900000       0.897944
     1420.000000       0.898361
     1420.100000       0.898769
     1420.200000       0.899168
     1420.300000       0.899557
     1420.400000       0.899937
     1420.500000       0.900311
     1420.600000       0.900675
     1420.700000       0.901033
     1420.800000       0.901385
     1420.900000       0.901730
     1421.000000       0.902070
     1421.100000       0.902406
     1421.200000       0.902738
     1421.300000       0.903068
     1421.400000       0.903395
     1421.500000       0.903720
     1421.600000       0.904044
     1421.700000       0.904367
     1421.800000       0.904691
     1421.900000       0.905014
     1422.000000       0.905337
     1422.100000       0.905661
     1422.200000       0.905987
     1422.300000       0.906314
     1422.400000       0.906644
     1422.500000       0.906976
     1422.600000       0.907311
     1422.700000       0.907648
     1422.800000       0.907990
     1422.900000       0.908335
     1423.000000       0.908685
     1423.100000       0.909040
     1423.200000       0.909400
     1423.300000       0.909767
     1423.400000       0.910139
     1423.500000       0.910520
     1423.600000       0.910907
     1423.700000       0.911303
     1423.800000       0.911708
     1423.900000       0.912121
     1424.000000       0.912542
     1424.100000       0.912970
     1424.200000       0.913404
     1424.300000       0.913843
     1424.400000       0.914286
     1424.500000       0.914732
     1424.600000       0.915179
     1424.700000       0.915629
     1424.800000       0.916080
     1424.900000       0.916530
     1425.000000       0.916979
     1425.100000       0.917426
     1425.200000       0.917872
     1425.300000       0.918315
     1425.400000       0.918754
     1425.500000       0.919189
     1425.600000       0.919619
     1425.700000       0.920043
     1425.800000       0.920462
     1425.900000       0.920875
     1426.000000       0.921281
     1426.100000       0.921682
     1426.200000       0.922076
     1426.300000       0.922466
     1426.400000       0.922849
     1426.500000       0.923227
     1426.600000       0.923600
     1426.700000       0.923968
     1426.800000       0.924331
     1426.900000       0.924689
     1427.000000       0.925042
     1427.100000       0.925392
     1427.200000       0.925739
     1427.300000       0.926083
     1427.400000       0.926424
     1427.500000       0.926764
     1427.600000       0.927103
     1427.700000       0.927441
     1427.800000       0.927779
     1427.900000       0.928118
     1428.000000       0.928455
     1428.100000       0.928794
     1428.200000       0.929133
     1428.300000       0.929472
     1428.400000       0.929812
     1428.500000       0.930151
     1428.600000       0.930492
     1428.700000       0.930833
     1428.800000       0.931175
     1428.900000       0.931518
     1429.000000       0.931862
     1429.100000       0.932209
     1429.200000       0.932557
     1429.300000       0.932909
     1429.400000       0.933264
     1429.500000       0.933622
     1429.600000       0.933985
     1429.700000       0.934353
     1429.800000       0.934725
     1429.900000       0.935102
     1430.000000       0.935484
     1430.100000       0.935871
     1430.200000       0.936262
     1430.300000       0.936658
     1430.400000       0.937056
     1430.500000       0.937457
     1430.600000       0.937862
     1430.700000       0.938269
     1430.800000       0.938679
     1430.900000       0.939090
     1431.000000       0.939503
     1431.100000       0.939915
     1431.200000       0.940327
     1431.300000       0.940738
     1431.400000       0.941148
     1431.500000       0.941555
     1431.600000       0.941960
     1431.700000       0.942361
     1431.800000       0.942758
     1431.900000       0.943151
     1432.000000       0.943539
     1432.100000       0.943925
     1432.200000       0.944306
     1432.300000       0.944685
     1432.400000       0.945061
     1432.500000       0.945434
     1432.600000       0.945805
     1432.700000       0.946174
     1432.800000       0.946542
     1432.900000       0.946908
     1433.000000       0.947272
     1433.100000       0.947634
     1433.200000       0.947994
     1433.300000       0.948352
     1433.400000       0.948707
     1433.500000       0.949059
     1433.600000       0.949409
     1433.700000       0.949755
     1433.800000       0.950098
     1433.900000       0.950438
     1434.000000       0.950773
     1434.100000       0.951103
     1434.200000       0.951428
     1434.300000       0.951748
     1434.400000       0.952063
     1434.500000       0.952372
     1434.600000       0.952675
     1434.700000       0.952971
     1434.800000       0.953262
     1434.900000       0.953545
     1435.000000       0.953820
     1435.100000       0.954089
     1435.200000       0.954351
     1435.300000       0.954607
     1435.400000       0.954855
     1435.500000       0.955096
     1435.600000       0.955331
     1435.700000       0.955558
     1435.800000       0.955778
     1435.900000       0.955991
     1436.000000       0.956197
     1436.100000       0.956396
     1436.200000       0.956588
     1436.300000       0.956773
     1436.400000       0.956950
     1436.500000       0.957121
     1436.600000       0.957286
     1436.700000       0.957443
     1436.800000       0.957594
     1436.900000       0.957738
     1437.000000       0.957874
     1437.100000       0.958004
     1437.200000       0.958128
     1437.300000       0.958245
     1437.400000       0.958355
     1437.500000       0.958458
     1437.600000       0.958554
     1437.700000       0.958642
     1437.800000       0.958722
     1437.900000       0.958794
     1438.000000       0.958859
     1438.100000       0.958918
     1438.200000       0.958972
     1438.300000       0.959020
     1438.400000       0.959065
     1438.500000       0.959107
     1438.600000       0.959146
     1438.700000       0.959182
     1438.800000       0.959216
     1438.900000       0.959250
     1439.000000       0.959285
     1439.100000       0.959319
     1439.200000       0.959354
     1439.300000       0.959393
     1439.400000       0.959435
     1439.500000       0.959480
     1439.600000       0.959531
     1439.700000       0.959587
     1439.800000       0.959648
     1439.900000       0.959715
     1440.000000       0.959786
     1440.100000       0.959862
     1440.200000       0.959940
     1440.300000       0.960019
     1440.400000       0.960099
     1440.500000       0.960178
     1440.600000       0.960255
     1440.700000       0.960329
     1440.800000       0.960399
     1440.900000       0.960463
     1441.000000       0.960521
     1441.100000       0.960571
     1441.200000       0.960613
     1441.300000       0.960644
     1441.400000       0.960663
     1441.500000       0.960669
     1441.600000       0.960661
     1441.700000       0.960636
     1441.800000       0.960594
     1441.900000       0.960535
     1442.000000       0.960460
     1442.100000       0.960371
     1442.200000       0.960268
     1442.300000       0.960154
     1442.400000       0.960029
     1442.500000       0.959895
     1442.600000       0.959752
     1442.700000       0.959603
     1442.800000       0.959448
     1442.900000       0.959289
     1443.000000       0.959127
     1443.100000       0.958963
     1443.200000       0.958800
     1443.300000       0.958638
     1443.400000       0.958481
     1443.500000       0.958328
     1443.600000       0.958182
     1443.700000       0.958044
     1443.800000       0.957914
     1443.900000       0.957796
     1444.000000       0.957686
     1444.100000       0.957586
     1444.200000       0.957495
     1444.300000       0.957410
     1444.400000       0.957332
     1444.500000       0.957261
     1444.600000       0.957196
     1444.700000       0.957137
     1444.800000       0.957083
     1444.900000       0.957034
     1445.000000       0.956989
     1445.100000       0.956946
     1445.200000       0.956906
     1445.300000       0.956868
     1445.400000       0.956831
     1445.500000       0.956795
     1445.600000       0.956757
     1445.700000       0.956719
     1445.800000       0.956681
     1445.900000       0.956640
     1446.000000       0.956597
     1446.100000       0.956551
     1446.200000       0.956502
     1446.300000       0.956449
     1446.400000       0.956393
     1446.500000       0.956334
     1446.600000       0.956269
     1446.700000       0.956199
     1446.800000       0.956125
     1446.900000       0.956044
     1447.000000       0.955958
     1447.100000       0.955868
     1447.200000       0.955772
     1447.300000       0.955671
     1447.400000       0.955566
     1447.500000       0.955457
     1447.600000       0.955343
     1447.700000       0.955225
     1447.800000       0.955102
     1447.900000       0.954975
     1448.000000       0.954847
     1448.100000       0.954716
     1448.200000       0.954586
     1448.300000       0.954456
     1448.400000       0.954328
     1448.500000       0.954203
     1448.600000       0.954082
     1448.700000       0.953967
     1448.800000       0.953858
     1448.900000       0.953757
     1449.000000       0.953664
     1449.100000       0.953581
     1449.200000       0.953509
     1449.300000       0.953449
     1449.400000       0.953403
     1449.500000       0.953370
     1449.600000       0.953353
     1449.700000       0.953354
     1449.800000       0.953373
     1449.900000       0.953410
     1450.000000       0.953463
     1450.100000       0.953531
     1450.200000       0.953611
     1450.300000       0.953701
     1450.400000       0.953800
     1450.500000       0.953905
     1450.600000       0.954016
     1450.700000       0.954131
     1450.800000       0.954247
     1450.900000       0.954362
     1451.000000       0.954476
     1451.100000       0.954585
     1451.200000       0.954689
     1451.300000       0.954785
     1451.400000       0.954871
     1451.500000       0.954945
     1451.600000       0.955005
     1451.700000       0.955051
     1451.800000       0.955079
     1451.900000       0.955090
     1452.000000       0.955087
     1452.100000       0.955072
     1452.200000       0.955047
     1452.300000       0.955015
     1452.400000       0.954980
     1452.500000       0.954943
     1452.600000       0.954906
     1452.700000       0.954873
     1452.800000       0.954846
     1452.900000       0.954828
     1453.000000       0.954820
     1453.100000       0.954826
     1453.200000       0.954847
     1453.300000       0.954885
     1453.400000       0.954945
     1453.500000       0.955026
     1453.600000       0.955132
     1453.700000       0.955266
     1453.800000       0.955431
     1453.900000       0.955625
     1454.000000       0.955844
     1454.100000       0.956086
     1454.200000       0.956346
     1454.300000       0.956622
     1454.400000       0.956909
     1454.500000       0.957204
     1454.600000       0.957503
     1454.700000       0.957802
     1454.800000       0.958099
     1454.900000       0.958390
     1455.000000       0.958670
     1455.100000       0.958937
     1455.200000       0.959187
     1455.300000       0.959417
     1455.400000       0.959622
     1455.500000       0.959799
     1455.600000       0.959945
     1455.700000       0.960055
     1455.800000       0.960126
     1455.900000       0.960159
     1456.000000       0.960156
     1456.100000       0.960123
     1456.200000       0.960062
     1456.300000       0.959978
     1456.400000       0.959875
     1456.500000       0.959758
     1456.600000       0.959629
     1456.700000       0.959492
     1456.800000       0.959352
     1456.900000       0.959211
     1457.000000       0.959074
     1457.100000       0.958943
     1457.200000       0.958822
     1457.300000       0.958714
     1457.400000       0.958623
     1457.500000       0.958552
     1457.600000       0.958504
     1457.700000       0.958484
     1457.800000       0.958493
     1457.900000       0.958534
     1458.000000       0.958604
     1458.100000       0.958700
     1458.200000       0.958820
     1458.300000       0.958963
     1458.400000       0.959125
     1458.500000       0.959304
     1458.600000       0.959498
     1458.700000       0.959705
     1458.800000       0.959925
     1458.900000       0.960152
     1459.000000       0.960386
     1459.100000       0.960624
     1459.200000       0.960863
     1459.300000       0.961100
     1459.400000       0.961332
     1459.500000       0.961557
     1459.600000       0.961772
     1459.700000       0.961974
     1459.800000       0.962162
     1459.900000       0.962334
     1460.000000       0.962492
     1460.100000       0.962639
     1460.200000       0.962776
     1460.300000       0.962905
     1460.400000       0.963028
     1460.500000       0.963146
     1460.600000       0.963260
     1460.700000       0.963375
     1460.800000       0.963491
     1460.900000       0.963610
     1461.000000       0.963733
     1461.100000       0.963862
     1461.200000       0.963998
     1461.300000       0.964144
     1461.400000       0.964299
     1461.500000       0.964468
     1461.600000       0.964649
     1461.700000       0.964846
     1461.800000       0.965060
     1461.900000       0.965291
     1462.000000       0.965538
     1462.100000       0.965799
     1462.200000       0.966070
     1462.300000       0.966354
     1462.400000       0.966645
     1462.500000       0.966944
     1462.600000       0.967248
     1462.700000       0.967557
     1462.800000       0.967869
     1462.900000       0.968181
     1463.000000       0.968492
     1463.100000       0.968800
     1463.200000       0.969102
     1463.300000       0.969398
     1463.400000       0.969683
     1463.500000       0.969957
     1463.600000       0.970218
     1463.700000       0.970462
     1463.800000       0.970689
     1463.900000       0.970899
     1464.000000       0.971093
     1464.100000       0.971276
     1464.200000       0.971450
     1464.300000       0.971617
     1464.400000       0.971780
     1464.500000       0.971942
     1464.600000       0.972106
     1464.700000       0.972274
     1464.800000       0.972450
     1464.900000       0.972636
     1465.000000       0.972834
     1465.100000       0.973046
     1465.200000       0.973274
     1465.300000       0.973521
     1465.400000       0.973789
     1465.500000       0.974080
     1465.600000       0.974398
     1465.700000       0.974744
     1465.800000       0.975121
     1465.900000       0.975527
     1466.000000       0.975960
     1466.100000       0.976415
     1466.200000       0.976892
     1466.300000       0.977385
     1466.400000       0.977891
     1466.500000       0.978406
     1466.600000       0.978929
     1466.700000       0.979455
     1466.800000       0.979981
     1466.900000       0.980503
     1467.000000       0.981018
     1467.100000       0.981522
     1467.200000       0.982013
     1467.300000       0.982487
     1467.400000       0.982940
     1467.500000       0.983368
     1467.600000       0.983767
     1467.700000       0.984135
     1467.800000       0.984467
     1467.900000       0.984764
     1468.000000       0.985027
     1468.100000       0.985261
     1468.200000       0.985468
     1468.300000       0.985653
     1468.400000       0.985817
     1468.500000       0.985963
     1468.600000       0.986096
     1468.700000       0.986218
     1468.800000       0.986331
     1468.900000       0.986439
     1469.000000       0.986544
     1469.100000       0.986648
     1469.200000       0.986752
     1469.300000       0.986861
     1469.400000       0.986975
     1469.500000       0.987097
     1469.600000       0.987229
     1469.700000       0.987373
     1469.800000       0.987532
     1469.900000       0.987706
     1470.000000       0.987892
     1470.100000       0.988092
     1470.200000       0.988302
     1470.300000       0.988523
     1470.400000       0.988751
     1470.500000       0.988986
     1470.600000       0.989226
     1470.700000       0.989470
     1470.800000       0.989716
     1470.900000       0.989963
     1471.000000       0.990208
     1471.100000       0.990451
     1471.200000       0.990688
     1471.300000       0.990919
     1471.400000       0.991141
     1471.500000       0.991351
     1471.600000       0.991549
     1471.700000       0.991731
     1471.800000       0.991897
     1471.900000       0.992046
     1472.000000       0.992179
     1472.100000       0.992299
     1472.200000       0.992407
     1472.300000       0.992508
     1472.400000       0.992599
     1472.500000       0.992685
     1472.600000       0.992767
     1472.700000       0.992846
     1472.800000       0.992925
     1472.900000       0.993005
     1473.000000       0.993088
     1473.100000       0.993175
     1473.200000       0.993270
     1473.300000       0.993373
     1473.400000       0.993488
     1473.500000       0.993613
     1473.600000       0.993754
     1473.700000       0.993911
     1473.800000       0.994086
     1473.900000       0.994279
     1474.000000       0.994487
     1474.100000       0.994710
     1474.200000       0.994945
     1474.300000       0.995190
     1474.400000       0.995443
     1474.500000       0.995702
     1474.600000       0.995964
     1474.700000       0.996228
     1474.800000       0.996493
     1474.900000       0.996755
     1475.000000       0.997015
     1475.100000       0.997270
     1475.200000       0.997519
     1475.300000       0.997763
     1475.400000       0.997999
     1475.500000       0.998224
     1475.600000       0.998440
     1475.700000       0.998642
     1475.800000       0.998831
     1475.900000       0.999006
     1476.000000       0.999166
     1476.100000       0.999312
     1476.200000       0.999445
     1476.300000       0.999563
     1476.400000       0.999667
     1476.500000       0.999758
     1476.600000       0.999834
     1476.700000       0.999896
     1476.800000       0.999945
     1476.900000       0.999978
     1477.000000       0.999997
     1477.100000       1.000000
     1477.200000       0.999988
     1477.300000       0.999960
     1477.400000       0.999916
     1477.500000       0.999855
     1477.600000       0.999775
     1477.700000       0.999678
     1477.800000       0.999561
     1477.900000       0.999426
     1478.000000       0.999274
     1478.100000       0.999107
     1478.200000       0.998927
     1478.300000       0.998734
     1478.400000       0.998532
     1478.500000       0.998322
     1478.600000       0.998105
     1478.700000       0.997883
     1478.800000       0.997656
     1478.900000       0.997428
     1479.000000       0.997198
     1479.100000       0.996966
     1479.200000       0.996736
     1479.300000       0.996506
     1479.400000       0.996278
     1479.500000       0.996053
     1479.600000       0.995831
     1479.700000       0.995614
     1479.800000       0.995402
     1479.900000       0.995195
     1480.000000       0.994994
     1480.100000       0.994799
     1480.200000       0.994608
     1480.300000       0.994421
     1480.400000       0.994240
     1480.500000       0.994063
     1480.600000       0.993890
     1480.700000       0.993722
     1480.800000       0.993556
     1480.900000       0.993394
     1481.000000       0.993236
     1481.100000       0.993080
     1481.200000       0.992928
     1481.300000       0.992777
     1481.400000       0.992629
     1481.500000       0.992485
     1481.600000       0.992342
     1481.700000       0.992200
     1481.800000       0.992059
     1481.900000       0.991921
     1482.000000       0.991783
     1482.100000       0.991647
     1482.200000       0.991510
     1482.300000       0.991375
     1482.400000       0.991239
     1482.500000       0.991104
     1482.600000       0.990968
     1482.700000       0.990832
     1482.800000       0.990694
     1482.900000       0.990555
     1483.000000       0.990415
     1483.100000       0.990273
     1483.200000       0.990130
     1483.300000       0.989983
     1483.400000       0.989835
     1483.500000       0.989685
     1483.600000       0.989532
     1483.700000       0.989375
     1483.800000       0.989216
     1483.900000       0.989053
     1484.000000       0.988888
     1484.100000       0.988722
     1484.200000       0.988555
     1484.300000       0.988386
     1484.400000       0.988218
     1484.500000       0.988052
     1484.600000       0.987886
     1484.700000       0.987723
     1484.800000       0.987562
     1484.900000       0.987404
     1485.000000       0.987250
     1485.100000       0.987100
     1485.200000       0.986955
     1485.300000       0.986814
     1485.400000       0.986679
     1485.500000       0.986550
     1485.600000       0.986428
     1485.700000       0.986313
     1485.800000       0.986204
     1485.900000       0.986103
     1486.000000       0.986006
     1486.100000       0.985912
     1486.200000       0.985820
     1486.300000       0.985727
     1486.400000       0.985631
     1486.500000       0.985531
     1486.600000       0.985425
     1486.700000       0.985310
     1486.800000       0.985185
     1486.900000       0.985048
     1487.000000       0.984898
     1487.100000       0.984732
     1487.200000       0.984548
     1487.300000       0.984345
     1487.400000       0.984121
     1487.500000       0.983872
     1487.600000       0.983599
     1487.700000       0.983298
     1487.800000       0.982966
     1487.900000       0.982605
     1488.000000       0.982217
     1488.100000       0.981805
     1488.200000       0.981372
     1488.300000       0.980919
     1488.400000       0.980450
     1488.500000       0.979967
     1488.600000       0.979473
     1488.700000       0.978971
     1488.800000       0.978461
     1488.900000       0.977948
     1489.000000       0.977434
     1489.100000       0.976922
     1489.200000       0.976415
     1489.300000       0.975914
     1489.400000       0.975425
     1489.500000       0.974949
     1489.600000       0.974490
     1489.700000       0.974049
     1489.800000       0.973629
     1489.900000       0.973231
     1490.000000       0.972853
     1490.100000       0.972493
     1490.200000       0.972147
     1490.300000       0.971813
     1490.400000       0.971490
     1490.500000       0.971175
     1490.600000       0.970866
     1490.700000       0.970561
     1490.800000       0.970256
     1490.900000       0.969951
     1491.000000       0.969643
     1491.100000       0.969329
     1491.200000       0.969008
     1491.300000       0.968676
     1491.400000       0.968331
     1491.500000       0.967972
     1491.600000       0.967596
     1491.700000       0.967200
     1491.800000       0.966782
     1491.900000       0.966342
     1492.000000       0.965881
     1492.100000       0.965401
     1492.200000       0.964904
     1492.300000       0.964391
     1492.400000       0.963864
     1492.500000       0.963326
     1492.600000       0.962777
     1492.700000       0.962219
     1492.800000       0.961653
     1492.900000       0.961082
     1493.000000       0.960507
     1493.100000       0.959931
     1493.200000       0.959355
     1493.300000       0.958781
     1493.400000       0.958212
     1493.500000       0.957650
     1493.600000       0.957096
     1493.700000       0.956552
     1493.800000       0.956020
     1493.900000       0.955500
     1494.000000       0.954993
     1494.100000       0.954495
     1494.200000       0.954006
     1494.300000       0.953524
     1494.400000       0.953050
     1494.500000       0.952581
     1494.600000       0.952116
     1494.700000       0.951655
     1494.800000       0.951195
     1494.900000       0.950735
     1495.000000       0.950276
     1495.100000       0.949815
     1495.200000       0.949352
     1495.300000       0.948884
     1495.400000       0.948413
     1495.500000       0.947935
     1495.600000       0.947452
     1495.700000       0.946960
     1495.800000       0.946458
     1495.900000       0.945948
     1496.000000       0.945430
     1496.100000       0.944905
     1496.200000       0.944374
     1496.300000       0.943837
     1496.400000       0.943297
     1496.500000       0.942754
     1496.600000       0.942210
     1496.700000       0.941664
     1496.800000       0.941118
     1496.900000       0.940574
     1497.000000       0.940032
     1497.100000       0.939494
     1497.200000       0.938961
     1497.300000       0.938433
     1497.400000       0.937913
     1497.500000       0.937403
     1497.600000       0.936902
     1497.700000       0.936413
     1497.800000       0.935936
     1497.900000       0.935473
     1498.000000       0.935020
     1498.100000       0.934579
     1498.200000       0.934145
     1498.300000       0.933719
     1498.400000       0.933299
     1498.500000       0.932884
     1498.600000       0.932472
     1498.700000       0.932063
     1498.800000       0.931654
     1498.900000       0.931246
     1499.000000       0.930836
     1499.100000       0.930423
     1499.200000       0.930005
     1499.300000       0.929581
     1499.400000       0.929150
     1499.500000       0.928709
     1499.600000       0.928259
     1499.700000       0.927797
     1499.800000       0.927322
     1499.900000       0.926836
     1500.000000       0.926340
     1500.100000       0.925834
     1500.200000       0.925320
     1500.300000       0.924800
     1500.400000       0.924276
     1500.500000       0.923750
     1500.600000       0.923222
     1500.700000       0.922695
     1500.800000       0.922169
     1500.900000       0.921647
     1501.000000       0.921130
     1501.100000       0.920619
     1501.200000       0.920115
     1501.300000       0.919618
     1501.400000       0.919133
     1501.500000       0.918658
     1501.600000       0.918196
     1501.700000       0.917749
     1501.800000       0.917317
     1501.900000       0.916902
     1502.000000       0.916500
     1502.100000       0.916112
     1502.200000       0.915734
     1502.300000       0.915366
     1502.400000       0.915007
     1502.500000       0.914654
     1502.600000       0.914307
     1502.700000       0.913964
     1502.800000       0.913623
     1502.900000       0.913283
     1503.000000       0.912943
     1503.100000       0.912602
     1503.200000       0.912257
     1503.300000       0.911907
     1503.400000       0.911552
     1503.500000       0.911188
     1503.600000       0.910816
     1503.700000       0.910433
     1503.800000       0.910039
     1503.900000       0.909634
     1504.000000       0.909219
     1504.100000       0.908796
     1504.200000       0.908366
     1504.300000       0.907931
     1504.400000       0.907492
     1504.500000       0.907052
     1504.600000       0.906611
     1504.700000       0.906170
     1504.800000       0.905732
     1504.900000       0.905298
     1505.000000       0.904869
     1505.100000       0.904448
     1505.200000       0.904037
     1505.300000       0.903636
     1505.400000       0.903249
     1505.500000       0.902877
     1505.600000       0.902521
     1505.700000       0.902185
     1505.800000       0.901869
     1505.900000       0.901573
     1506.000000       0.901294
     1506.100000       0.901030
     1506.200000       0.900778
     1506.300000       0.900534
     1506.400000       0.900295
     1506.500000       0.900060
     1506.600000       0.899825
     1506.700000       0.899587
     1506.800000       0.899344
     1506.900000       0.899092
     1507.000000       0.898828
     1507.100000       0.898549
     1507.200000       0.898251
     1507.300000       0.897931
     1507.400000       0.897586
     1507.500000       0.897212
     1507.600000       0.896806
     1507.700000       0.896363
     1507.800000       0.895882
     1507.900000       0.895363
     1508.000000       0.894810
     1508.100000       0.894229
     1508.200000       0.893622
     1508.300000       0.892997
     1508.400000       0.892358
     1508.500000       0.891709
     1508.600000       0.891055
     1508.700000       0.890401
     1508.800000       0.889752
     1508.900000       0.889112
     1509.000000       0.888486
     1509.100000       0.887877
     1509.200000       0.887289
     1509.300000       0.886727
     1509.400000       0.886195
     1509.500000       0.885697
     1509.600000       0.885238
     1509.700000       0.884821
     1509.800000       0.884453
     1509.900000       0.884131
     1510.000000       0.883854
     1510.100000       0.883616
     1510.200000       0.883415
     1510.300000       0.883246
     1510.400000       0.883105
     1510.500000       0.882989
     1510.600000       0.882894
     1510.700000       0.882819
     1510.800000       0.882757
     1510.900000       0.882707
     1511.000000       0.882664
     1511.100000       0.882626
     1511.200000       0.882587
     1511.300000       0.882545
     1511.400000       0.882495
     1511.500000       0.882434
     1511.600000       0.882357
     1511.700000       0.882261
     1511.800000       0.882143
     1511.900000       0.882001
     1512.000000       0.881839
     1512.100000       0.881657
     1512.200000       0.881459
     1512.300000       0.881247
     1512.400000       0.881024
     1512.500000       0.880792
     1512.600000       0.880555
     1512.700000       0.880314
     1512.800000       0.880072
     1512.900000       0.879833
     1513.000000       0.879598
     1513.100000       0.879369
     1513.200000       0.879149
     1513.300000       0.878939
     1513.400000       0.878744
     1513.500000       0.878565
     1513.600000       0.878403
     1513.700000       0.878262
     1513.800000       0.878143
     1513.900000       0.878047
     1514.000000       0.877973
     1514.100000       0.877917
     1514.200000       0.877878
     1514.300000       0.877854
     1514.400000       0.877844
     1514.500000       0.877846
     1514.600000       0.877857
     1514.700000       0.877877
     1514.800000       0.877903
     1514.900000       0.877935
     1515.000000       0.877970
     1515.100000       0.878006
     1515.200000       0.878041
     1515.300000       0.878073
     1515.400000       0.878102
     1515.500000       0.878123
     1515.600000       0.878136
     1515.700000       0.878139
     1515.800000       0.878130
     1515.900000       0.878109
     1516.000000       0.878077
     1516.100000       0.878033
     1516.200000       0.877982
     1516.300000       0.877922
     1516.400000       0.877856
     1516.500000       0.877783
     1516.600000       0.877706
     1516.700000       0.877625
     1516.800000       0.877543
     1516.900000       0.877459
     1517.000000       0.877377
     1517.100000       0.877296
     1517.200000       0.877220
     1517.300000       0.877148
     1517.400000       0.877083
     1517.500000       0.877026
     1517.600000       0.876980
     1517.700000       0.876944
     1517.800000       0.876921
     1517.900000       0.876910
     1518.000000       0.876911
     1518.100000       0.876922
     1518.200000       0.876941
     1518.300000       0.876967
     1518.400000       0.876999
     1518.500000       0.877035
     1518.600000       0.877073
     1518.700000       0.877112
     1518.800000       0.877152
     1518.900000       0.877190
     1519.000000       0.877225
     1519.100000       0.877256
     1519.200000       0.877282
     1519.300000       0.877302
     1519.400000       0.877314
     1519.500000       0.877317
     1519.600000       0.877310
     1519.700000       0.877291
     1519.800000       0.877260
     1519.900000       0.877215
     1520.000000       0.877159
     1520.100000       0.877093
     1520.200000       0.877017
     1520.300000       0.876933
     1520.400000       0.876842
     1520.500000       0.876746
     1520.600000       0.876645
     1520.700000       0.876541
     1520.800000       0.876435
     1520.900000       0.876328
     1521.000000       0.876222
     1521.100000       0.876116
     1521.200000       0.876013
     1521.300000       0.875914
     1521.400000       0.875818
     1521.500000       0.875729
     1521.600000       0.875646
     1521.700000       0.875571
     1521.800000       0.875504
     1521.900000       0.875446
     1522.000000       0.875397
     1522.100000       0.875355
     1522.200000       0.875317
     1522.300000       0.875285
     1522.400000       0.875256
     1522.500000       0.875230
     1522.600000       0.875205
     1522.700000       0.875179
     1522.800000       0.875153
     1522.900000       0.875124
     1523.000000       0.875092
     1523.100000       0.875055
     1523.200000       0.875014
     1523.300000       0.874966
     1523.400000       0.874912
     1523.500000       0.874850
     1523.600000       0.874779
     1523.700000       0.874697
     1523.800000       0.874604
     1523.900000       0.874500
     1524.000000       0.874385
     1524.100000       0.874259
     1524.200000       0.874124
     1524.300000       0.873980
     1524.400000       0.873827
     1524.500000       0.873665
     1524.600000       0.873494
     1524.700000       0.873315
     1524.800000       0.873127
     1524.900000       0.872931
     1525.000000       0.872728
     1525.100000       0.872519
     1525.200000       0.872306
     1525.300000       0.872087
     1525.400000       0.871866
     1525.500000       0.871642
     1525.600000       0.871418
     1525.700000       0.871192
     1525.800000       0.870967
     1525.900000       0.870743
     1526.000000       0.870520
     1526.100000       0.870299
     1526.200000       0.870080
     1526.300000       0.869863
     1526.400000       0.869649
     1526.500000       0.869437
     1526.600000       0.869228
     1526.700000       0.869023
     1526.800000       0.868821
     1526.900000       0.868623
     1527.000000       0.868429
     1527.100000       0.868240
     1527.200000       0.868056
     1527.300000       0.867877
     1527.400000       0.867705
     1527.500000       0.867539
     1527.600000       0.867381
     1527.700000       0.867229
     1527.800000       0.867086
     1527.900000       0.866950
     1528.000000       0.866822
     1528.100000       0.866699
     1528.200000       0.866583
     1528.300000       0.866471
     1528.400000       0.866363
     1528.500000       0.866260
     1528.600000       0.866159
     1528.700000       0.866061
     1528.800000       0.865965
     1528.900000       0.865870
     1529.000000       0.865776
     1529.100000       0.865680
     1529.200000       0.865581
     1529.300000       0.865479
     1529.400000       0.865371
     1529.500000       0.865258
     1529.600000       0.865138
     1529.700000       0.865010
     1529.800000       0.864873
     1529.900000       0.864727
     1530.000000       0.864576
     1530.100000       0.864419
     1530.200000       0.864261
     1530.300000       0.864102
     1530.400000       0.863945
     1530.500000       0.863792
     1530.600000       0.863647
     1530.700000       0.863511
     1530.800000       0.863386
     1530.900000       0.863274
     1531.000000       0.863178
     1531.100000       0.863097
     1531.200000       0.863036
     1531.300000       0.862993
     1531.400000       0.862972
     1531.500000       0.862975
     1531.600000       0.863004
     1531.700000       0.863061
     1531.800000       0.863148
     1531.900000       0.863265
     1532.000000       0.863410
     1532.100000       0.863583
     1532.200000       0.863782
     1532.300000       0.864006
     1532.400000       0.864253
     1532.500000       0.864521
     1532.600000       0.864811
     1532.700000       0.865120
     1532.800000       0.865449
     1532.900000       0.865797
     1533.000000       0.866161
     1533.100000       0.866541
     1533.200000       0.866936
     1533.300000       0.867345
     1533.400000       0.867767
     1533.500000       0.868201
     1533.600000       0.868646
     1533.700000       0.869102
     1533.800000       0.869569
     1533.900000       0.870044
     1534.000000       0.870528
     1534.100000       0.871018
     1534.200000       0.871513
     1534.300000       0.872013
     1534.400000       0.872515
     1534.500000       0.873019
     1534.600000       0.873524
     1534.700000       0.874027
     1534.800000       0.874530
     1534.900000       0.875030
     1535.000000       0.875526
     1535.100000       0.876017
     1535.200000       0.876501
     1535.300000       0.876978
     1535.400000       0.877445
     1535.500000       0.877902
     1535.600000       0.878348
     1535.700000       0.878779
     1535.800000       0.879198
     1535.900000       0.879601
     1536.000000       0.879990
     1536.100000       0.880368
     1536.200000       0.880736
     1536.300000       0.881094
     1536.400000       0.881444
     1536.500000       0.881788
     1536.600000       0.882125
     1536.700000       0.882458
     1536.800000       0.882788
     1536.900000       0.883116
     1537.000000       0.883443
     1537.100000       0.883770
     1537.200000       0.884098
     1537.300000       0.884430
     1537.400000       0.884765
     1537.500000       0.885105
     1537.600000       0.885450
     1537.700000       0.885802
     1537.800000       0.886162
     1537.900000       0.886529
     1538.000000       0.886902
     1538.100000       0.887277
     1538.200000       0.887656
     1538.300000       0.888034
     1538.400000       0.888410
     1538.500000       0.888781
     1538.600000       0.889146
     1538.700000       0.889503
     1538.800000       0.889848
     1538.900000       0.890179
     1539.000000       0.890495
     1539.100000       0.890796
     1539.200000       0.891080
     1539.300000       0.891345
     1539.400000       0.891589
     1539.500000       0.891811
     1539.600000       0.892008
     1539.700000       0.892179
     1539.800000       0.892321
     1539.900000       0.892435
     1540.000000       0.892522
     1540.100000       0.892584
     1540.200000       0.892622
     1540.300000       0.892640
     1540.400000       0.892637
     1540.500000       0.892614
     1540.600000       0.892575
     1540.700000       0.892521
     1540.800000       0.892449
     1540.900000       0.892365
     1541.000000       0.892269
     1541.100000       0.892163
     1541.200000       0.892048
     1541.300000       0.891926
     1541.400000       0.891798
     1541.500000       0.891666
     1541.600000       0.891531
     1541.700000       0.891394
     1541.800000       0.891257
     1541.900000       0.891119
     1542.000000       0.890981
     1542.100000       0.890843
     1542.200000       0.890705
     1542.300000       0.890566
     1542.400000       0.890426
     1542.500000       0.890285
     1542.600000       0.890142
     1542.700000       0.889999
     1542.800000       0.889852
     1542.900000       0.889703
     1543.000000       0.889552
     1543.100000       0.889400
     1543.200000       0.889246
     1543.300000       0.889091
     1543.400000       0.888935
     1543.500000       0.888779
     1543.600000       0.888622
     1543.700000       0.888464
     1543.800000       0.888306
     1543.900000       0.888148
     1544.000000       0.887989
     1544.100000       0.887829
     1544.200000       0.887668
     1544.300000       0.887506
     1544.400000       0.887341
     1544.500000       0.887175
     1544.600000       0.887005
     1544.700000       0.886833
     1544.800000       0.886657
     1544.900000       0.886478
     1545.000000       0.886294
     1545.100000       0.886108
     1545.200000       0.885917
     1545.300000       0.885722
     1545.400000       0.885524
     1545.500000       0.885321
     1545.600000       0.885115
     1545.700000       0.884904
     1545.800000       0.884688
     1545.900000       0.884470
     1546.000000       0.884248
     1546.100000       0.884023
     1546.200000       0.883796
     1546.300000       0.883568
     1546.400000       0.883340
     1546.500000       0.883112
     1546.600000       0.882886
     1546.700000       0.882661
     1546.800000       0.882439
     1546.900000       0.882221
     1547.000000       0.882008
     1547.100000       0.881801
     1547.200000       0.881600
     1547.300000       0.881406
     1547.400000       0.881223
     1547.500000       0.881050
     1547.600000       0.880889
     1547.700000       0.880740
     1547.800000       0.880606
     1547.900000       0.880487
     1548.000000       0.880382
     1548.100000       0.880292
     1548.200000       0.880216
     1548.300000       0.880153
     1548.400000       0.880104
     1548.500000       0.880069
     1548.600000       0.880047
     1548.700000       0.880040
     1548.800000       0.880047
     1548.900000       0.880068
     1549.000000       0.880103
     1549.100000       0.880151
     1549.200000       0.880212
     1549.300000       0.880286
     1549.400000       0.880372
     1549.500000       0.880471
     1549.600000       0.880582
     1549.700000       0.880708
     1549.800000       0.880846
     1549.900000       0.880997
     1550.000000       0.881160
     1550.100000       0.881332
     1550.200000       0.881514
     1550.300000       0.881705
     1550.400000       0.881903
     1550.500000       0.882108
     1550.600000       0.882318
     1550.700000       0.882534
     1550.800000       0.882755
     1550.900000       0.882979
     1551.000000       0.883206
     1551.100000       0.883435
     1551.200000       0.883666
     1551.300000       0.883898
     1551.400000       0.884128
     1551.500000       0.884359
     1551.600000       0.884587
     1551.700000       0.884813
     1551.800000       0.885037
     1551.900000       0.885258
     1552.000000       0.885477
     1552.100000       0.885693
     1552.200000       0.885907
     1552.300000       0.886120
     1552.400000       0.886331
     1552.500000       0.886541
     1552.600000       0.886750
     1552.700000       0.886959
     1552.800000       0.887169
     1552.900000       0.887378
     1553.000000       0.887589
     1553.100000       0.887801
     1553.200000       0.888014
     1553.300000       0.888230
     1553.400000       0.888447
     1553.500000       0.888668
     1553.600000       0.888891
     1553.700000       0.889117
     1553.800000       0.889348
     1553.900000       0.889581
     1554.000000       0.889816
     1554.100000       0.890050
     1554.200000       0.890283
     1554.300000       0.890513
     1554.400000       0.890736
     1554.500000       0.890953
     1554.600000       0.891159
     1554.700000       0.891356
     1554.800000       0.891540
     1554.900000       0.891708
     1555.000000       0.891861
     1555.100000       0.891997
     1555.200000       0.892114
     1555.300000       0.892213
     1555.400000       0.892291
     1555.500000       0.892348
     1555.600000       0.892380
     1555.700000       0.892388
     1555.800000       0.892368
     1555.900000       0.892322
     1556.000000       0.892252
     1556.100000       0.892162
     1556.200000       0.892052
     1556.300000       0.891927
     1556.400000       0.891788
     1556.500000       0.891638
     1556.600000       0.891479
     1556.700000       0.891313
     1556.800000       0.891143
     1556.900000       0.890971
     1557.000000       0.890799
     1557.100000       0.890631
     1557.200000       0.890470
     1557.300000       0.890317
     1557.400000       0.890178
     1557.500000       0.890053
     1557.600000       0.889946
     1557.700000       0.889860
     1557.800000       0.889797
     1557.900000       0.889757
     1558.000000       0.889736
     1558.100000       0.889732
     1558.200000       0.889741
     1558.300000       0.889759
     1558.400000       0.889784
     1558.500000       0.889812
     1558.600000       0.889840
     1558.700000       0.889864
     1558.800000       0.889881
     1558.900000       0.889887
     1559.000000       0.889880
     1559.100000       0.889857
     1559.200000       0.889817
     1559.300000       0.889756
     1559.400000       0.889670
     1559.500000       0.889559
     1559.600000       0.889418
     1559.700000       0.889245
     1559.800000       0.889036
     1559.900000       0.888791
     1560.000000       0.888514
     1560.100000       0.888205
     1560.200000       0.887869
     1560.300000       0.887506
     1560.400000       0.887122
     1560.500000       0.886716
     1560.600000       0.886293
     1560.700000       0.885853
     1560.800000       0.885399
     1560.900000       0.884934
     1561.000000       0.884460
     1561.100000       0.883980
     1561.200000       0.883495
     1561.300000       0.883008
     1561.400000       0.882522
     1561.500000       0.882041
     1561.600000       0.881563
     1561.700000       0.881094
     1561.800000       0.880634
     1561.900000       0.880186
     1562.000000       0.879747
     1562.100000       0.879315
     1562.200000       0.878891
     1562.300000       0.878473
     1562.400000       0.878059
     1562.500000       0.877649
     1562.600000       0.877240
     1562.700000       0.876834
     1562.800000       0.876426
     1562.900000       0.876018
     1563.000000       0.875607
     1563.100000       0.875194
     1563.200000       0.874777
     1563.300000       0.874355
     1563.400000       0.873928
     1563.500000       0.873495
     1563.600000       0.873054
     1563.700000       0.872604
     1563.800000       0.872144
     1563.900000       0.871675
     1564.000000       0.871197
     1564.100000       0.870710
     1564.200000       0.870216
     1564.300000       0.869714
     1564.400000       0.869207
     1564.500000       0.868694
     1564.600000       0.868177
     1564.700000       0.867654
     1564.800000       0.867127
     1564.900000       0.866598
     1565.000000       0.866067
     1565.100000       0.865533
     1565.200000       0.865000
     1565.300000       0.864468
     1565.400000       0.863937
     1565.500000       0.863409
     1565.600000       0.862884
     1565.700000       0.862363
     1565.800000       0.861847
     1565.900000       0.861336
     1566.000000       0.860830
     1566.100000       0.860329
     1566.200000       0.859832
     1566.300000       0.859338
     1566.400000       0.858848
     1566.500000       0.858361
     1566.600000       0.857877
     1566.700000       0.857396
     1566.800000       0.856917
     1566.900000       0.856441
     1567.000000       0.855966
     1567.100000       0.855494
     1567.200000       0.855024
     1567.300000       0.854556
     1567.400000       0.854090
     1567.500000       0.853628
     1567.600000       0.853167
     1567.700000       0.852708
     1567.800000       0.852252
     1567.900000       0.851799
     1568.000000       0.851349
     1568.100000       0.850901
     1568.200000       0.850456
     1568.300000       0.850013
     1568.400000       0.849573
     1568.500000       0.849136
     1568.600000       0.848702
     1568.700000       0.848271
     1568.800000       0.847842
     1568.900000       0.847418
     1569.000000       0.846998
     1569.100000       0.846581
     1569.200000       0.846169
     1569.300000       0.845760
     1569.400000       0.845358
     1569.500000       0.844961
     1569.600000       0.844570
     1569.700000       0.844186
     1569.800000       0.843808
     1569.900000       0.843438
     1570.000000       0.843075
     1570.100000       0.842718
     1570.200000       0.842367
     1570.300000       0.842020
     1570.400000       0.841680
     1570.500000       0.841344
     1570.600000       0.841013
     1570.700000       0.840686
     1570.800000       0.840363
     1570.900000       0.840044
     1571.000000       0.839729
     1571.100000       0.839416
     1571.200000       0.839105
     1571.300000       0.838794
     1571.400000       0.838484
     1571.500000       0.838175
     1571.600000       0.837865
     1571.700000       0.837554
     1571.800000       0.837241
     1571.900000       0.836928
     1572.000000       0.836613
     1572.100000       0.836298
     1572.200000       0.835981
     1572.300000       0.835664
     1572.400000       0.835346
     1572.500000       0.835030
     1572.600000       0.834713
     1572.700000       0.834396
     1572.800000       0.834080
     1572.900000       0.833765
     1573.000000       0.833451
     1573.100000       0.833138
     1573.200000       0.832828
     1573.300000       0.832520
     1573.400000       0.832214
     1573.500000       0.831910
     1573.600000       0.831611
     1573.700000       0.831314
     1573.800000       0.831022
     1573.900000       0.830734
     1574.000000       0.830450
     1574.100000       0.830171
     1574.200000       0.829896
     1574.300000       0.829625
     1574.400000       0.829360
     1574.500000       0.829100
     1574.600000       0.828845
     1574.700000       0.828596
     1574.800000       0.828352
     1574.900000       0.828113
     1575.000000       0.827879
     1575.100000       0.827650
     1575.200000       0.827425
     1575.300000       0.827204
     1575.400000       0.826987
     1575.500000       0.826774
     1575.600000       0.826563
     1575.700000       0.826355
     1575.800000       0.826150
     1575.900000       0.825948
     1576.000000       0.825747
     1576.100000       0.825549
     1576.200000       0.825352
     1576.300000       0.825155
     1576.400000       0.824960
     1576.500000       0.824765
     1576.600000       0.824571
     1576.700000       0.824375
     1576.800000       0.824179
     1576.900000       0.823982
     1577.000000       0.823784
     1577.100000       0.823584
     1577.200000       0.823383
     1577.300000       0.823179
     1577.400000       0.822974
     1577.500000       0.822766
     1577.600000       0.822556
     1577.700000       0.822343
     1577.800000       0.822127
     1577.900000       0.821908
     1578.000000       0.821687
     1578.100000       0.821462
     1578.200000       0.821236
     1578.300000       0.821006
     1578.400000       0.820775
     1578.500000       0.820542
     1578.600000       0.820307
     1578.700000       0.820071
     1578.800000       0.819832
     1578.900000       0.819593
     1579.000000       0.819351
     1579.100000       0.819106
     1579.200000       0.818858
     1579.300000       0.818605
     1579.400000       0.818348
     1579.500000       0.818086
     1579.600000       0.817817
     1579.700000       0.817542
     1579.800000       0.817259
     1579.900000       0.816969
     1580.000000       0.816672
     1580.100000       0.816370
     1580.200000       0.816062
     1580.300000       0.815750
     1580.400000       0.815434
     1580.500000       0.815115
     1580.600000       0.814794
     1580.700000       0.814472
     1580.800000       0.814147
     1580.900000       0.813823
     1581.000000       0.813499
     1581.100000       0.813176
     1581.200000       0.812856
     1581.300000       0.812538
     1581.400000       0.812225
     1581.500000       0.811916
     1581.600000       0.811613
     1581.700000       0.811316
     1581.800000       0.811026
     1581.900000       0.810743
     1582.000000       0.810466
     1582.100000       0.810195
     1582.200000       0.809928
     1582.300000       0.809666
     1582.400000       0.809407
     1582.500000       0.809149
     1582.600000       0.808894
     1582.700000       0.808640
     1582.800000       0.808385
     1582.900000       0.808130
     1583.000000       0.807873
     1583.100000       0.807613
     1583.200000       0.807350
     1583.300000       0.807082
     1583.400000       0.806809
     1583.500000       0.806529
     1583.600000       0.806242
     1583.700000       0.805947
     1583.800000       0.805642
     1583.900000       0.805327
     1584.000000       0.805003
     1584.100000       0.804670
     1584.200000       0.804330
     1584.300000       0.803982
     1584.400000       0.803627
     1584.500000       0.803265
     1584.600000       0.802898
     1584.700000       0.802523
     1584.800000       0.802143
     1584.900000       0.801758
     1585.000000       0.801369
     1585.100000       0.800976
     1585.200000       0.800582
     1585.300000       0.800186
     1585.400000       0.799789
     1585.500000       0.799393
     1585.600000       0.798999
     1585.700000       0.798606
     1585.800000       0.798215
     1585.900000       0.797828
     1586.000000       0.797443
     1586.100000       0.797059
     1586.200000       0.796678
     1586.300000       0.796296
     1586.400000       0.795915
     1586.500000       0.795534
     1586.600000       0.795153
     1586.700000       0.794770
     1586.800000       0.794385
     1586.900000       0.793998
     1587.000000       0.793609
     1587.100000       0.793215
     1587.200000       0.792817
     1587.300000       0.792413
     1587.400000       0.792004
     1587.500000       0.791589
     1587.600000       0.791166
     1587.700000       0.790736
     1587.800000       0.790296
     1587.900000       0.789848
     1588.000000       0.789393
     1588.100000       0.788932
     1588.200000       0.788466
     1588.300000       0.787997
     1588.400000       0.787526
     1588.500000       0.787054
     1588.600000       0.786583
     1588.700000       0.786113
     1588.800000       0.785645
     1588.900000       0.785183
     1589.000000       0.784726
     1589.100000       0.784275
     1589.200000       0.783832
     1589.300000       0.783397
     1589.400000       0.782974
     1589.500000       0.782562
     1589.600000       0.782163
     1589.700000       0.781779
     1589.800000       0.781409
     1589.900000       0.781056
     1590.000000       0.780716
     1590.100000       0.780389
     1590.200000       0.780072
     1590.300000       0.779766
     1590.400000       0.779468
     1590.500000       0.779176
     1590.600000       0.778891
     1590.700000       0.778609
     1590.800000       0.778331
     1590.900000       0.778054
     1591.000000       0.777775
     1591.100000       0.777493
     1591.200000       0.777204
     1591.300000       0.776906
     1591.400000       0.776597
     1591.500000       0.776273
     1591.600000       0.775933
     1591.700000       0.775573
     1591.800000       0.775192
     1591.900000       0.774790
     1592.000000       0.774367
     1592.100000       0.773926
     1592.200000       0.773469
     1592.300000       0.772997
     1592.400000       0.772514
     1592.500000       0.772019
     1592.600000       0.771515
     1592.700000       0.771004
     1592.800000       0.770486
     1592.900000       0.769965
     1593.000000       0.769443
     1593.100000       0.768921
     1593.200000       0.768401
     1593.300000       0.767886
     1593.400000       0.767377
     1593.500000       0.766878
     1593.600000       0.766389
     1593.700000       0.765914
     1593.800000       0.765453
     1593.900000       0.765009
     1594.000000       0.764580
     1594.100000       0.764166
     1594.200000       0.763764
     1594.300000       0.763376
     1594.400000       0.762999
     1594.500000       0.762634
     1594.600000       0.762279
     1594.700000       0.761934
     1594.800000       0.761599
     1594.900000       0.761272
     1595.000000       0.760954
     1595.100000       0.760643
     1595.200000       0.760340
     1595.300000       0.760042
     1595.400000       0.759752
     1595.500000       0.759467
     1595.600000       0.759187
     1595.700000       0.758912
     1595.800000       0.758641
     1595.900000       0.758374
     1596.000000       0.758110
     1596.100000       0.757848
     1596.200000       0.757588
     1596.300000       0.757330
     1596.400000       0.757073
     1596.500000       0.756816
     1596.600000       0.756559
     1596.700000       0.756302
     1596.800000       0.756043
     1596.900000       0.755783
     1597.000000       0.755520
     1597.100000       0.755255
     1597.200000       0.754988
     1597.300000       0.754717
     1597.400000       0.754442
     1597.500000       0.754163
     1597.600000       0.753880
     1597.700000       0.753592
     1597.800000       0.753299
     1597.900000       0.753001
     1598.000000       0.752699
     1598.100000       0.752394
     1598.200000       0.752087
     1598.300000       0.751778
     1598.400000       0.751469
     1598.500000       0.751162
     1598.600000       0.750856
     1598.700000       0.750555
     1598.800000       0.750257
     1598.900000       0.749964
     1599.000000       0.749678
     1599.100000       0.749397
     1599.200000       0.749123
     1599.300000       0.748857
     1599.400000       0.748598
     1599.500000       0.748348
     1599.600000       0.748108
     1599.700000       0.747877
     1599.800000       0.747658
     1599.900000       0.747449
     1600.000000       0.747250
     1600.100000       0.747061
     1600.200000       0.746881
     1600.300000       0.746709
     1600.400000       0.746545
     1600.500000       0.746388
     1600.600000       0.746237
     1600.700000       0.746093
     1600.800000       0.745955
     1600.900000       0.745822
     1601.000000       0.745693
     1601.100000       0.745568
     1601.200000       0.745446
     1601.300000       0.745326
     1601.400000       0.745207
     1601.500000       0.745090
     1601.600000       0.744972
     1601.700000       0.744855
     1601.800000       0.744736
     1601.900000       0.744616
     1602.000000       0.744495
     1602.100000       0.744372
     1602.200000       0.744248
     1602.300000       0.744124
     1602.400000       0.743998
     1602.500000       0.743872
     1602.600000       0.743745
     1602.700000       0.743618
     1602.800000       0.743490
     1602.900000       0.743362
     1603.000000       0.743234
     1603.100000       0.743106
     1603.200000       0.742977
     1603.300000       0.742848
     1603.400000       0.742719
     1603.500000       0.742590
     1603.600000       0.742460
     1603.700000       0.742331
     1603.800000       0.742201
     1603.900000       0.742072
     1604.000000       0.741944
     1604.100000       0.741818
     1604.200000       0.741694
     1604.300000       0.741573
     1604.400000       0.741455
     1604.500000       0.741342
     1604.600000       0.741233
     1604.700000       0.741131
     1604.800000       0.741034
     1604.900000       0.740945
     1605.000000       0.740865
     1605.100000       0.740794
     1605.200000       0.740733
     1605.300000       0.740682
     1605.400000       0.740643
     1605.500000       0.740618
     1605.600000       0.740608
     1605.700000       0.740613
     1605.800000       0.740635
     1605.900000       0.740674
     1606.000000       0.740728
     1606.100000       0.740795
     1606.200000       0.740875
     1606.300000       0.740966
     1606.400000       0.741066
     1606.500000       0.741175
     1606.600000       0.741290
     1606.700000       0.741410
     1606.800000       0.741536
     1606.900000       0.741664
     1607.000000       0.741795
     1607.100000       0.741926
     1607.200000       0.742057
     1607.300000       0.742186
     1607.400000       0.742312
     1607.500000       0.742434
     1607.600000       0.742552
     1607.700000       0.742663
     1607.800000       0.742767
     1607.900000       0.742864
     1608.000000       0.742954
     1608.100000       0.743039
     1608.200000       0.743117
     1608.300000       0.743191
     1608.400000       0.743260
     1608.500000       0.743327
     1608.600000       0.743390
     1608.700000       0.743452
     1608.800000       0.743512
     1608.900000       0.743571
     1609.000000       0.743630
     1609.100000       0.743687
     1609.200000       0.743745
     1609.300000       0.743801
     1609.400000       0.743857
     1609.500000       0.743912
     1609.600000       0.743968
     1609.700000       0.744023
     1609.800000       0.744079
     1609.900000       0.744135
     1610.000000       0.744192
     1610.100000       0.744251
     1610.200000       0.744313
     1610.300000       0.744378
     1610.400000       0.744447
     1610.500000       0.744521
     1610.600000       0.744600
     1610.700000       0.744686
     1610.800000       0.744780
     1610.900000       0.744881
     1611.000000       0.744991
     1611.100000       0.745110
     1611.200000       0.745239
     1611.300000       0.745378
     1611.400000       0.745529
     1611.500000       0.745692
     1611.600000       0.745867
     1611.700000       0.746056
     1611.800000       0.746260
     1611.900000       0.746478
     1612.000000       0.746708
     1612.100000       0.746949
     1612.200000       0.747199
     1612.300000       0.747458
     1612.400000       0.747721
     1612.500000       0.747989
     1612.600000       0.748261
     1612.700000       0.748533
     1612.800000       0.748805
     1612.900000       0.749075
     1613.000000       0.749343
     1613.100000       0.749605
     1613.200000       0.749861
     1613.300000       0.750110
     1613.400000       0.750349
     1613.500000       0.750576
     1613.600000       0.750792
     1613.700000       0.750992
     1613.800000       0.751178
     1613.900000       0.751348
     1614.000000       0.751504
     1614.100000       0.751648
     1614.200000       0.751781
     1614.300000       0.751906
     1614.400000       0.752023
     1614.500000       0.752135
     1614.600000       0.752244
     1614.700000       0.752351
     1614.800000       0.752458
     1614.900000       0.752567
     1615.000000       0.752678
     1615.100000       0.752794
     1615.200000       0.752915
     1615.300000       0.753043
     1615.400000       0.753179
     1615.500000       0.753324
     1615.600000       0.753480
     1615.700000       0.753649
     1615.800000       0.753832
     1615.900000       0.754028
     1616.000000       0.754237
     1616.100000       0.754457
     1616.200000       0.754687
     1616.300000       0.754926
     1616.400000       0.755171
     1616.500000       0.755424
     1616.600000       0.755681
     1616.700000       0.755943
     1616.800000       0.756207
     1616.900000       0.756473
     1617.000000       0.756739
     1617.100000       0.757004
     1617.200000       0.757268
     1617.300000       0.757528
     1617.400000       0.757784
     1617.500000       0.758033
     1617.600000       0.758277
     1617.700000       0.758511
     1617.800000       0.758737
     1617.900000       0.758952
     1618.000000       0.759159
     1618.100000       0.759358
     1618.200000       0.759549
     1618.300000       0.759734
     1618.400000       0.759913
     1618.500000       0.760087
     1618.600000       0.760257
     1618.700000       0.760424
     1618.800000       0.760587
     1618.900000       0.760749
     1619.000000       0.760911
     1619.100000       0.761072
     1619.200000       0.761234
     1619.300000       0.761398
     1619.400000       0.761565
     1619.500000       0.761737
     1619.600000       0.761912
     1619.700000       0.762094
     1619.800000       0.762283
     1619.900000       0.762478
     1620.000000       0.762679
     1620.100000       0.762885
     1620.200000       0.763096
     1620.300000       0.763310
     1620.400000       0.763527
     1620.500000       0.763745
     1620.600000       0.763964
     1620.700000       0.764184
     1620.800000       0.764403
     1620.900000       0.764621
     1621.000000       0.764836
     1621.100000       0.765049
     1621.200000       0.765258
     1621.300000       0.765463
     1621.400000       0.765664
     1621.500000       0.765858
     1621.600000       0.766047
     1621.700000       0.766228
     1621.800000       0.766402
     1621.900000       0.766569
     1622.000000       0.766729
     1622.100000       0.766885
     1622.200000       0.767036
     1622.300000       0.767184
     1622.400000       0.767331
     1622.500000       0.767477
     1622.600000       0.767623
     1622.700000       0.767771
     1622.800000       0.767923
     1622.900000       0.768078
     1623.000000       0.768237
     1623.100000       0.768402
     1623.200000       0.768573
     1623.300000       0.768750
     1623.400000       0.768934
     1623.500000       0.769126
     1623.600000       0.769326
     1623.700000       0.769537
     1623.800000       0.769757
     1623.900000       0.769987
     1624.000000       0.770225
     1624.100000       0.770471
     1624.200000       0.770721
     1624.300000       0.770975
     1624.400000       0.771231
     1624.500000       0.771487
     1624.600000       0.771743
     1624.700000       0.771996
     1624.800000       0.772245
     1624.900000       0.772488
     1625.000000       0.772724
     1625.100000       0.772951
     1625.200000       0.773167
     1625.300000       0.773371
     1625.400000       0.773559
     1625.500000       0.773732
     1625.600000       0.773887
     1625.700000       0.774021
     1625.800000       0.774133
     1625.900000       0.774223
     1626.000000       0.774294
     1626.100000       0.774347
     1626.200000       0.774384
     1626.300000       0.774407
     1626.400000       0.774419
     1626.500000       0.774420
     1626.600000       0.774414
     1626.700000       0.774401
     1626.800000       0.774383
     1626.900000       0.774363
     1627.000000       0.774343
     1627.100000       0.774324
     1627.200000       0.774311
     1627.300000       0.774305
     1627.400000       0.774309
     1627.500000       0.774325
     1627.600000       0.774355
     1627.700000       0.774403
     1627.800000       0.774469
     1627.900000       0.774555
     1628.000000       0.774658
     1628.100000       0.774777
     1628.200000       0.774909
     1628.300000       0.775053
     1628.400000       0.775205
     1628.500000       0.775364
     1628.600000       0.775528
     1628.700000       0.775694
     1628.800000       0.775862
     1628.900000       0.776029
     1629.000000       0.776192
     1629.100000       0.776351
     1629.200000       0.776504
     1629.300000       0.776651
     1629.400000       0.776788
     1629.500000       0.776916
     1629.600000       0.777030
     1629.700000       0.777131
     1629.800000       0.777217
     1629.900000       0.777287
     1630.000000       0.777342
     1630.100000       0.777383
     1630.200000       0.777411
     1630.300000       0.777427
     1630.400000       0.777432
     1630.500000       0.777427
     1630.600000       0.777413
     1630.700000       0.777390
     1630.800000       0.777359
     1630.900000       0.777322
     1631.000000       0.777279
     1631.100000       0.777230
     1631.200000       0.777176
     1631.300000       0.777117
     1631.400000       0.777056
     1631.500000       0.776991
     1631.600000       0.776924
     1631.700000       0.776856
     1631.800000       0.776786
     1631.900000       0.776716
     1632.000000       0.776645
     1632.100000       0.776575
     1632.200000       0.776506
     1632.300000       0.776438
     1632.400000       0.776372
     1632.500000       0.776308
     1632.600000       0.776246
     1632.700000       0.776188
     1632.800000       0.776133
     1632.900000       0.776081
     1633.000000       0.776034
     1633.100000       0.775992
     1633.200000       0.775954
     1633.300000       0.775922
     1633.400000       0.775896
     1633.500000       0.775876
     1633.600000       0.775864
     1633.700000       0.775859
     1633.800000       0.775862
     1633.900000       0.775873
     1634.000000       0.775890
     1634.100000       0.775915
     1634.200000       0.775946
     1634.300000       0.775981
     1634.400000       0.776022
     1634.500000       0.776066
     1634.600000       0.776114
     1634.700000       0.776164
     1634.800000       0.776216
     1634.900000       0.776270
     1635.000000       0.776325
     1635.100000       0.776382
     1635.200000       0.776440
     1635.300000       0.776500
     1635.400000       0.776560
     1635.500000       0.776622
     1635.600000       0.776685
     1635.700000       0.776749
     1635.800000       0.776813
     1635.900000       0.776879
     1636.000000       0.776944
     1636.100000       0.777007
     1636.200000       0.777069
     1636.300000       0.777129
     1636.400000       0.777187
     1636.500000       0.777240
     1636.600000       0.777290
     1636.700000       0.777334
     1636.800000       0.777374
     1636.900000       0.777407
     1637.000000       0.777435
     1637.100000       0.777457
     1637.200000       0.777473
     1637.300000       0.777483
     1637.400000       0.777487
     1637.500000       0.777486
     1637.600000       0.777480
     1637.700000       0.777467
     1637.800000       0.777449
     1637.900000       0.777426
     1638.000000       0.777398
     1638.100000       0.777367
     1638.200000       0.777332
     1638.300000       0.777295
     1638.400000       0.777255
     1638.500000       0.777215
     1638.600000       0.777174
     1638.700000       0.777134
     1638.800000       0.777096
     1638.900000       0.777060
     1639.000000       0.777026
     1639.100000       0.776997
     1639.200000       0.776971
     1639.300000       0.776952
     1639.400000       0.776938
     1639.500000       0.776932
     1639.600000       0.776934
     1639.700000       0.776946
     1639.800000       0.776967
     1639.900000       0.776999
     1640.000000       0.777041
     1640.100000       0.777093
     1640.200000       0.777154
     1640.300000       0.777224
     1640.400000       0.777303
     1640.500000       0.777389
     1640.600000       0.777484
     1640.700000       0.777586
     1640.800000       0.777697
     1640.900000       0.777813
     1641.000000       0.777937
     1641.100000       0.778067
     1641.200000       0.778204
     1641.300000       0.778349
     1641.400000       0.778500
     1641.500000       0.778657
     1641.600000       0.778822
     1641.700000       0.778992
     1641.800000       0.779169
     1641.900000       0.779352
     1642.000000       0.779539
     1642.100000       0.779728
     1642.200000       0.779918
     1642.300000       0.780108
     1642.400000       0.780294
     1642.500000       0.780477
     1642.600000       0.780654
     1642.700000       0.780822
     1642.800000       0.780982
     1642.900000       0.781130
     1643.000000       0.781266
     1643.100000       0.781387
     1643.200000       0.781493
     1643.300000       0.781583
     1643.400000       0.781653
     1643.500000       0.781703
     1643.600000       0.781732
     1643.700000       0.781738
     1643.800000       0.781718
     1643.900000       0.781674
     1644.000000       0.781609
     1644.100000       0.781526
     1644.200000       0.781428
     1644.300000       0.781318
     1644.400000       0.781199
     1644.500000       0.781075
     1644.600000       0.780948
     1644.700000       0.780822
     1644.800000       0.780699
     1644.900000       0.780584
     1645.000000       0.780479
     1645.100000       0.780388
     1645.200000       0.780315
     1645.300000       0.780263
     1645.400000       0.780235
     1645.500000       0.780237
     1645.600000       0.780271
     1645.700000       0.780342
     1645.800000       0.780454
     1645.900000       0.780605
     1646.000000       0.780795
     1646.100000       0.781018
     1646.200000       0.781273
     1646.300000       0.781557
     1646.400000       0.781865
     1646.500000       0.782195
     1646.600000       0.782546
     1646.700000       0.782912
     1646.800000       0.783294
     1646.900000       0.783686
     1647.000000       0.784088
     1647.100000       0.784496
     1647.200000       0.784908
     1647.300000       0.785322
     1647.400000       0.785737
     1647.500000       0.786148
     1647.600000       0.786554
     1647.700000       0.786953
     1647.800000       0.787343
     1647.900000       0.787722
     1648.000000       0.788093
     1648.100000       0.788454
     1648.200000       0.788806
     1648.300000       0.789152
     1648.400000       0.789489
     1648.500000       0.789820
     1648.600000       0.790146
     1648.700000       0.790466
     1648.800000       0.790783
     1648.900000       0.791095
     1649.000000       0.791403
     1649.100000       0.791706
     1649.200000       0.792006
     1649.300000       0.792302
     1649.400000       0.792594
     1649.500000       0.792882
     1649.600000       0.793165
     1649.700000       0.793445
     1649.800000       0.793721
     1649.900000       0.793992
     1650.000000       0.794259
     1650.100000       0.794523
     1650.200000       0.794783
     1650.300000       0.795041
     1650.400000       0.795296
     1650.500000       0.795548
     1650.600000       0.795798
     1650.700000       0.796045
     1650.800000       0.796291
     1650.900000       0.796536
     1651.000000       0.796780
     1651.100000       0.797024
     1651.200000       0.797269
     1651.300000       0.797516
     1651.400000       0.797766
     1651.500000       0.798020
     1651.600000       0.798277
     1651.700000       0.798540
     1651.800000       0.798808
     1651.900000       0.799081
     1652.000000       0.799358
     1652.100000       0.799637
     1652.200000       0.799917
     1652.300000       0.800195
     1652.400000       0.800471
     1652.500000       0.800742
     1652.600000       0.801007
     1652.700000       0.801264
     1652.800000       0.801512
     1652.900000       0.801748
     1653.000000       0.801972
     1653.100000       0.802181
     1653.200000       0.802376
     1653.300000       0.802554
     1653.400000       0.802713
     1653.500000       0.802852
     1653.600000       0.802968
     1653.700000       0.803061
     1653.800000       0.803129
     1653.900000       0.803172
     1654.000000       0.803192
     1654.100000       0.803193
     1654.200000       0.803178
     1654.300000       0.803148
     1654.400000       0.803107
     1654.500000       0.803057
     1654.600000       0.803001
     1654.700000       0.802942
     1654.800000       0.802881
     1654.900000       0.802821
     1655.000000       0.802765
     1655.100000       0.802716
     1655.200000       0.802674
     1655.300000       0.802644
     1655.400000       0.802628
     1655.500000       0.802627
     1655.600000       0.802644
     1655.700000       0.802683
     1655.800000       0.802745
     1655.900000       0.802830
     1656.000000       0.802936
     1656.100000       0.803060
     1656.200000       0.803199
     1656.300000       0.803350
     1656.400000       0.803511
     1656.500000       0.803678
     1656.600000       0.803851
     1656.700000       0.804024
     1656.800000       0.804196
     1656.900000       0.804365
     1657.000000       0.804526
     1657.100000       0.804678
     1657.200000       0.804819
     1657.300000       0.804945
     1657.400000       0.805054
     1657.500000       0.805143
     1657.600000       0.805209
     1657.700000       0.805250
     1657.800000       0.805262
     1657.900000       0.805245
     1658.000000       0.805202
     1658.100000       0.805132
     1658.200000       0.805041
     1658.300000       0.804928
     1658.400000       0.804797
     1658.500000       0.804649
     1658.600000       0.804488
     1658.700000       0.804313
     1658.800000       0.804128
     1658.900000       0.803935
     1659.000000       0.803734
     1659.100000       0.803529
     1659.200000       0.803319
     1659.300000       0.803109
     1659.400000       0.802900
     1659.500000       0.802694
     1659.600000       0.802493
     1659.700000       0.802299
     1659.800000       0.802115
     1659.900000       0.801940
     1660.000000       0.801774
     1660.100000       0.801614
     1660.200000       0.801460
     1660.300000       0.801308
     1660.400000       0.801159
     1660.500000       0.801010
     1660.600000       0.800861
     1660.700000       0.800709
     1660.800000       0.800553
     1660.900000       0.800392
     1661.000000       0.800225
     1661.100000       0.800050
     1661.200000       0.799866
     1661.300000       0.799672
     1661.400000       0.799466
     1661.500000       0.799248
     1661.600000       0.799016
     1661.700000       0.798767
     1661.800000       0.798503
     1661.900000       0.798222
     1662.000000       0.797926
     1662.100000       0.797618
     1662.200000       0.797297
     1662.300000       0.796966
     1662.400000       0.796626
     1662.500000       0.796279
     1662.600000       0.795925
     1662.700000       0.795567
     1662.800000       0.795205
     1662.900000       0.794843
     1663.000000       0.794480
     1663.100000       0.794120
     1663.200000       0.793763
     1663.300000       0.793410
     1663.400000       0.793064
     1663.500000       0.792725
     1663.600000       0.792396
     1663.700000       0.792077
     1663.800000       0.791770
     1663.900000       0.791474
     1664.000000       0.791189
     1664.100000       0.790910
     1664.200000       0.790636
     1664.300000       0.790365
     1664.400000       0.790092
     1664.500000       0.789818
     1664.600000       0.789539
     1664.700000       0.789251
     1664.800000       0.788954
     1664.900000       0.788643
     1665.000000       0.788319
     1665.100000       0.787978
     1665.200000       0.787618
     1665.300000       0.787238
     1665.400000       0.786835
     1665.500000       0.786408
     1665.600000       0.785954
     1665.700000       0.785471
     1665.800000       0.784955
     1665.900000       0.784409
     1666.000000       0.783834
     1666.100000       0.783234
     1666.200000       0.782613
     1666.300000       0.781971
     1666.400000       0.781315
     1666.500000       0.780646
     1666.600000       0.779968
     1666.700000       0.779282
     1666.800000       0.778592
     1666.900000       0.777902
     1667.000000       0.777213
     1667.100000       0.776527
     1667.200000       0.775848
     1667.300000       0.775180
     1667.400000       0.774526
     1667.500000       0.773891
     1667.600000       0.773278
     1667.700000       0.772690
     1667.800000       0.772131
     1667.900000       0.771599
     1668.000000       0.771093
     1668.100000       0.770608
     1668.200000       0.770139
     1668.300000       0.769681
     1668.400000       0.769231
     1668.500000       0.768785
     1668.600000       0.768338
     1668.700000       0.767884
     1668.800000       0.767419
     1668.900000       0.766938
     1669.000000       0.766438
     1669.100000       0.765914
     1669.200000       0.765361
     1669.300000       0.764773
     1669.400000       0.764149
     1669.500000       0.763481
     1669.600000       0.762767
     1669.700000       0.762003
     1669.800000       0.761184
     1669.900000       0.760311
     1670.000000       0.759389
     1670.100000       0.758422
     1670.200000       0.757414
     1670.300000       0.756370
     1670.400000       0.755296
     1670.500000       0.754194
     1670.600000       0.753069
     1670.700000       0.751926
     1670.800000       0.750767
     1670.900000       0.749599
     1671.000000       0.748425
     1671.100000       0.747249
     1671.200000       0.746075
     1671.300000       0.744905
     1671.400000       0.743747
     1671.500000       0.742601
     1671.600000       0.741472
     1671.700000       0.740365
     1671.800000       0.739280
     1671.900000       0.738224
     1672.000000       0.737191
     1672.100000       0.736178
     1672.200000       0.735183
     1672.300000       0.734201
     1672.400000       0.733233
     1672.500000       0.732272
     1672.600000       0.731317
     1672.700000       0.730364
     1672.800000       0.729410
     1672.900000       0.728453
     1673.000000       0.727492
     1673.100000       0.726523
     1673.200000       0.725545
     1673.300000       0.724553
     1673.400000       0.723547
     1673.500000       0.722525
     1673.600000       0.721483
     1673.700000       0.720418
     1673.800000       0.719327
     1673.900000       0.718212
     1674.000000       0.717072
     1674.100000       0.715911
     1674.200000       0.714728
     1674.300000       0.713526
     1674.400000       0.712307
     1674.500000       0.711072
     1674.600000       0.709823
     1674.700000       0.708560
     1674.800000       0.707283
     1674.900000       0.705997
     1675.000000       0.704700
     1675.100000       0.703393
     1675.200000       0.702077
     1675.300000       0.700751
     1675.400000       0.699420
     1675.500000       0.698083
     1675.600000       0.696739
     1675.700000       0.695390
     1675.800000       0.694034
     1675.900000       0.692677
     1676.000000       0.691315
     1676.100000       0.689951
     1676.200000       0.688583
     1676.300000       0.687213
     1676.400000       0.685846
     1676.500000       0.684480
     1676.600000       0.683118
     1676.700000       0.681761
     1676.800000       0.680408
     1676.900000       0.679065
     1677.000000       0.677731
     1677.100000       0.676408
     1677.200000       0.675097
     1677.300000       0.673795
     1677.400000       0.672505
     1677.500000       0.671223
     1677.600000       0.669949
     1677.700000       0.668684
     1677.800000       0.667423
     1677.900000       0.666169
     1678.000000       0.664919
     1678.100000       0.663674
     1678.200000       0.662432
     1678.300000       0.661190
     1678.400000       0.659951
     1678.500000       0.658711
     1678.600000       0.657470
     1678.700000       0.656227
     1678.800000       0.654978
     1678.900000       0.653725
     1679.000000       0.652467
     1679.100000       0.651203
     1679.200000       0.649931
     1679.300000       0.648651
     1679.400000       0.647363
     1679.500000       0.646065
     1679.600000       0.644757
     1679.700000       0.643439
     1679.800000       0.642108
     1679.900000       0.640766
     1680.000000       0.639412
     1680.100000       0.638046
     1680.200000       0.636667
     1680.300000       0.635274
     1680.400000       0.633868
     1680.500000       0.632448
     1680.600000       0.631014
     1680.700000       0.629564
     1680.800000       0.628097
     1680.900000       0.626618
     1681.000000       0.625124
     1681.100000       0.623618
     1681.200000       0.622100
     1681.300000       0.620568
     1681.400000       0.619027
     1681.500000       0.617476
     1681.600000       0.615914
     1681.700000       0.614341
     1681.800000       0.612758
     1681.900000       0.611168
     1682.000000       0.609570
     1682.100000       0.607967
     1682.200000       0.606359
     1682.300000       0.604745
     1682.400000       0.603128
     1682.500000       0.601509
     1682.600000       0.599888
     1682.700000       0.598266
     1682.800000       0.596640
     1682.900000       0.595017
     1683.000000       0.593393
     1683.100000       0.591770
     1683.200000       0.590151
     1683.300000       0.588532
     1683.400000       0.586919
     1683.500000       0.585310
     1683.600000       0.583707
     1683.700000       0.582110
     1683.800000       0.580519
     1683.900000       0.578937
     1684.000000       0.577360
     1684.100000       0.575787
     1684.200000       0.574216
     1684.300000       0.572644
     1684.400000       0.571074
     1684.500000       0.569500
     1684.600000       0.567922
     1684.700000       0.566337
     1684.800000       0.564744
     1684.900000       0.563143
     1685.000000       0.561531
     1685.100000       0.559906
     1685.200000       0.558268
     1685.300000       0.556613
     1685.400000       0.554944
     1685.500000       0.553256
     1685.600000       0.551549
     1685.700000       0.549821
     1685.800000       0.548068
     1685.900000       0.546296
     1686.000000       0.544503
     1686.100000       0.542693
     1686.200000       0.540867
     1686.300000       0.539025
     1686.400000       0.537175
     1686.500000       0.535315
     1686.600000       0.533450
     1686.700000       0.531580
     1686.800000       0.529707
     1686.900000       0.527837
     1687.000000       0.525970
     1687.100000       0.524108
     1687.200000       0.522253
     1687.300000       0.520405
     1687.400000       0.518571
     1687.500000       0.516749
     1687.600000       0.514945
     1687.700000       0.513157
     1687.800000       0.511388
     1687.900000       0.509640
     1688.000000       0.507910
     1688.100000       0.506197
     1688.200000       0.504497
     1688.300000       0.502809
     1688.400000       0.501135
     1688.500000       0.499470
     1688.600000       0.497814
     1688.700000       0.496166
     1688.800000       0.494522
     1688.900000       0.492884
     1689.000000       0.491249
     1689.100000       0.489615
     1689.200000       0.487981
     1689.300000       0.486344
     1689.400000       0.484706
     1689.500000       0.483066
     1689.600000       0.481421
     1689.700000       0.479770
     1689.800000       0.478110
     1689.900000       0.476445
     1690.000000       0.474771
     1690.100000       0.473087
     1690.200000       0.471392
     1690.300000       0.469681
     1690.400000       0.467959
     1690.500000       0.466222
     1690.600000       0.464468
     1690.700000       0.462694
     1690.800000       0.460898
     1690.900000       0.459081
     1691.000000       0.457238
     1691.100000       0.455367
     1691.200000       0.453466
     1691.300000       0.451532
     1691.400000       0.449570
     1691.500000       0.447578
     1691.600000       0.445559
     1691.700000       0.443510
     1691.800000       0.441431
     1691.900000       0.439327
     1692.000000       0.437197
     1692.100000       0.435041
     1692.200000       0.432864
     1692.300000       0.430666
     1692.400000       0.428458
     1692.500000       0.426241
     1692.600000       0.424018
     1692.700000       0.421795
     1692.800000       0.419572
     1692.900000       0.417360
     1693.000000       0.415157
     1693.100000       0.412968
     1693.200000       0.410793
     1693.300000       0.408634
     1693.400000       0.406499
     1693.500000       0.404388
     1693.600000       0.402302
     1693.700000       0.400246
     1693.800000       0.398219
     1693.900000       0.396229
     1694.000000       0.394274
     1694.100000       0.392355
     1694.200000       0.390474
     1694.300000       0.388631
     1694.400000       0.386829
     1694.500000       0.385064
     1694.600000       0.383335
     1694.700000       0.381641
     1694.800000       0.379979
     1694.900000       0.378350
     1695.000000       0.376753
     1695.100000       0.375184
     1695.200000       0.373640
     1695.300000       0.372120
     1695.400000       0.370622
     1695.500000       0.369144
     1695.600000       0.367682
     1695.700000       0.366233
     1695.800000       0.364791
     1695.900000       0.363358
     1696.000000       0.361930
     1696.100000       0.360505
     1696.200000       0.359083
     1696.300000       0.357654
     1696.400000       0.356220
     1696.500000       0.354774
     1696.600000       0.353313
     1696.700000       0.351832
     1696.800000       0.350331
     1696.900000       0.348817
     1697.000000       0.347291
     1697.100000       0.345757
     1697.200000       0.344219
     1697.300000       0.342679
     1697.400000       0.341144
     1697.500000       0.339616
     1697.600000       0.338100
     1697.700000       0.336599
     1697.800000       0.335117
     1697.900000       0.333662
     1698.000000       0.332233
     1698.100000       0.330831
     1698.200000       0.329454
     1698.300000       0.328096
     1698.400000       0.326758
     1698.500000       0.325435
     1698.600000       0.324127
     1698.700000       0.322829
     1698.800000       0.321537
     1698.900000       0.320254
     1699.000000       0.318975
     1699.100000       0.317699
     1699.200000       0.316425
     1699.300000       0.315148
     1699.400000       0.313870
     1699.500000       0.312589
     1699.600000       0.311302
     1699.700000       0.310009
     1699.800000       0.308705
     1699.900000       0.307394
     1700.000000       0.306073
     1700.100000       0.304741
     1700.200000       0.303398
     1700.300000       0.302039
     1700.400000       0.300668
     1700.500000       0.299285
     1700.600000       0.297888
     1700.700000       0.296480
     1700.800000       0.295059
     1700.900000       0.293629
     1701.000000       0.292189
     1701.100000       0.290738
     1701.200000       0.289278
     1701.300000       0.287806
     1701.400000       0.286329
     1701.500000       0.284845
     1701.600000       0.283355
     1701.700000       0.281859
     1701.800000       0.280357
     1701.900000       0.278854
     1702.000000       0.277346
     1702.100000       0.275835
     1702.200000       0.274322
     1702.300000       0.272803
     1702.400000       0.271284
     1702.500000       0.269762
     1702.600000       0.268237
     1702.700000       0.266710
     1702.800000       0.265179
     1702.900000       0.263649
     1703.000000       0.262117
     1703.100000       0.260583
     1703.200000       0.259049
     1703.300000       0.257512
     1703.400000       0.255978
     1703.500000       0.254444
     1703.600000       0.252911
     1703.700000       0.251379
     1703.800000       0.249848
     1703.900000       0.248319
     1704.000000       0.246792
     1704.100000       0.245266
     1704.200000       0.243741
     1704.300000       0.242216
     1704.400000       0.240694
     1704.500000       0.239172
     1704.600000       0.237652
     1704.700000       0.236132
     1704.800000       0.234611
     1704.900000       0.233092
     1705.000000       0.231573
     1705.100000       0.230054
     1705.200000       0.228535
     1705.300000       0.227013
     1705.400000       0.225492
     1705.500000       0.223969
     1705.600000       0.222446
     1705.700000       0.220920
     1705.800000       0.219389
     1705.900000       0.217858
     1706.000000       0.216324
     1706.100000       0.214785
     1706.200000       0.213243
     1706.300000       0.211693
     1706.400000       0.210139
     1706.500000       0.208579
     1706.600000       0.207012
     1706.700000       0.205437
     1706.800000       0.203852
     1706.900000       0.202259
     1707.000000       0.200656
     1707.100000       0.199041
     1707.200000       0.197415
     1707.300000       0.195775
     1707.400000       0.194127
     1707.500000       0.192470
     1707.600000       0.190805
     1707.700000       0.189132
     1707.800000       0.187451
     1707.900000       0.185767
     1708.000000       0.184079
     1708.100000       0.182388
     1708.200000       0.180695
     1708.300000       0.178997
     1708.400000       0.177300
     1708.500000       0.175601
     1708.600000       0.173903
     1708.700000       0.172203
     1708.800000       0.170502
     1708.900000       0.168803
     1709.000000       0.167105
     1709.100000       0.165407
     1709.200000       0.163708
     1709.300000       0.162006
     1709.400000       0.160305
     1709.500000       0.158603
     1709.600000       0.156897
     1709.700000       0.155190
     1709.800000       0.153477
     1709.900000       0.151766
     1710.000000       0.150053
     1710.100000       0.148340
     1710.200000       0.146629
     1710.300000       0.144918
     1710.400000       0.143212
     1710.500000       0.141511
     1710.600000       0.139814
     1710.700000       0.138122
     1710.800000       0.136433
     1710.900000       0.134751
     1711.000000       0.133074
     1711.100000       0.131403
     1711.200000       0.129738
     1711.300000       0.128076
     1711.400000       0.126424
     1711.500000       0.124779
     1711.600000       0.123142
     1711.700000       0.121514
     1711.800000       0.119896
     1711.900000       0.118291
     1712.000000       0.116700
     1712.100000       0.115124
     1712.200000       0.113563
     1712.300000       0.112017
     1712.400000       0.110488
     1712.500000       0.108976
     1712.600000       0.107479
     1712.700000       0.105999
     1712.800000       0.104533
     1712.900000       0.103087
     1713.000000       0.101659
     1713.100000       0.100248
     1713.200000       0.098857
     1713.300000       0.097481
     1713.400000       0.096126
     1713.500000       0.094791
     1713.600000       0.093475
     1713.700000       0.092180
     1713.800000       0.090905
     1713.900000       0.089653
     1714.000000       0.088423
     1714.100000       0.087213
     1714.200000       0.086024
     1714.300000       0.084854
     1714.400000       0.083705
     1714.500000       0.082576
     1714.600000       0.081467
     1714.700000       0.080379
     1714.800000       0.079310
     1714.900000       0.078261
     1715.000000       0.077231
     1715.100000       0.076218
     1715.200000       0.075220
     1715.300000       0.074236
     1715.400000       0.073267
     1715.500000       0.072311
     1715.600000       0.071368
     1715.700000       0.070437
     1715.800000       0.069516
     1715.900000       0.068607
     1716.000000       0.067710
     1716.100000       0.066824
     1716.200000       0.065949
     1716.300000       0.065085
     1716.400000       0.064233
     1716.500000       0.063394
     1716.600000       0.062568
     1716.700000       0.061755
     1716.800000       0.060954
     1716.900000       0.060167
     1717.000000       0.059392
     1717.100000       0.058628
     1717.200000       0.057875
     1717.300000       0.057131
     1717.400000       0.056399
     1717.500000       0.055676
     1717.600000       0.054962
     1717.700000       0.054258
     1717.800000       0.053562
     1717.900000       0.052875
     1718.000000       0.052197
     1718.100000       0.051527
     1718.200000       0.050864
     1718.300000       0.050209
     1718.400000       0.049561
     1718.500000       0.048921
     1718.600000       0.048287
     1718.700000       0.047662
     1718.800000       0.047042
     1718.900000       0.046431
     1719.000000       0.045827
     1719.100000       0.045230
     1719.200000       0.044639
     1719.300000       0.044055
     1719.400000       0.043477
     1719.500000       0.042907
     1719.600000       0.042343
     1719.700000       0.041785
     1719.800000       0.041234
     1719.900000       0.040691
     1720.000000       0.040156
     1720.100000       0.039628
     1720.200000       0.039107
     1720.300000       0.038592
     1720.400000       0.038085
     1720.500000       0.037585
     1720.600000       0.037091
     1720.700000       0.036604
     1720.800000       0.036123
     1720.900000       0.035649
     1721.000000       0.035183
     1721.100000       0.034723
     1721.200000       0.034270
     1721.300000       0.033824
     1721.400000       0.033386
     1721.500000       0.032953
     1721.600000       0.032528
     1721.700000       0.032109
     1721.800000       0.031695
     1721.900000       0.031289
     1722.000000       0.030889
     1722.100000       0.030495
     1722.200000       0.030109
     1722.300000       0.029728
     1722.400000       0.029355
     1722.500000       0.028989
     1722.600000       0.028629
     1722.700000       0.028275
     1722.800000       0.027928
     1722.900000       0.027587
     1723.000000       0.027251
     1723.100000       0.026922
     1723.200000       0.026599
     1723.300000       0.026281
     1723.400000       0.025969
     1723.500000       0.025664
     1723.600000       0.025365
     1723.700000       0.025072
     1723.800000       0.024784
     1723.900000       0.024503
     1724.000000       0.024227
     1724.100000       0.023956
     1724.200000       0.023690
     1724.300000       0.023427
     1724.400000       0.023170
     1724.500000       0.022917
     1724.600000       0.022668
     1724.700000       0.022423
     1724.800000       0.022182
     1724.900000       0.021945
     1725.000000       0.021712
     1725.100000       0.021482
     1725.200000       0.021256
     1725.300000       0.021032
     1725.400000       0.020812
     1725.500000       0.020594
     1725.600000       0.020379
     1725.700000       0.020167
     1725.800000       0.019956
     1725.900000       0.019749
     1726.000000       0.019544
     1726.100000       0.019341
     1726.200000       0.019141
     1726.300000       0.018943
     1726.400000       0.018748
     1726.500000       0.018554
     1726.600000       0.018362
     1726.700000       0.018171
     1726.800000       0.017981
     1726.900000       0.017793
     1727.000000       0.017606
     1727.100000       0.017419
     1727.200000       0.017233
     1727.300000       0.017048
     1727.400000       0.016863
     1727.500000       0.016680
     1727.600000       0.016497
     1727.700000       0.016315
     1727.800000       0.016134
     1727.900000       0.015954
     1728.000000       0.015776
     1728.100000       0.015599
     1728.200000       0.015424
     1728.300000       0.015250
     1728.400000       0.015079
     1728.500000       0.014908
     1728.600000       0.014740
     1728.700000       0.014573
     1728.800000       0.014408
     1728.900000       0.014245
     1729.000000       0.014083
     1729.100000       0.013922
     1729.200000       0.013763
     1729.300000       0.013605
     1729.400000       0.013448
     1729.500000       0.013293
     1729.600000       0.013139
     1729.700000       0.012986
     1729.800000       0.012835
     1729.900000       0.012685
     1730.000000       0.012536
     1730.100000       0.012388
     1730.200000       0.012242
     1730.300000       0.012096
     1730.400000       0.011952
     1730.500000       0.011809
     1730.600000       0.011668
     1730.700000       0.011528
     1730.800000       0.011389
     1730.900000       0.011252
     1731.000000       0.011116
     1731.100000       0.010981
     1731.200000       0.010849
     1731.300000       0.010717
     1731.400000       0.010587
     1731.500000       0.010458
     1731.600000       0.010331
     1731.700000       0.010206
     1731.800000       0.010081
     1731.900000       0.009959
     1732.000000       0.009838
     1732.100000       0.009719
     1732.200000       0.009601
     1732.300000       0.009485
     1732.400000       0.009371
     1732.500000       0.009259
     1732.600000       0.009148
     1732.700000       0.009038
     1732.800000       0.008930
     1732.900000       0.008824
     1733.000000       0.008719
     1733.100000       0.008616
     1733.200000       0.008515
     1733.300000       0.008415
     1733.400000       0.008318
     1733.500000       0.008222
     1733.600000       0.008128
     1733.700000       0.008035
     1733.800000       0.007943
     1733.900000       0.007853
     1734.000000       0.007764
     1734.100000       0.007676
     1734.200000       0.007589
     1734.300000       0.007503
     1734.400000       0.007418
     1734.500000       0.007334
     1734.600000       0.007251
     1734.700000       0.007169
     1734.800000       0.007088
     1734.900000       0.007007
     1735.000000       0.006928
     1735.100000       0.006849
     1735.200000       0.006771
     1735.300000       0.006693
     1735.400000       0.006616
     1735.500000       0.006540
     1735.600000       0.006465
     1735.700000       0.006391
     1735.800000       0.006317
     1735.900000       0.006244
     1736.000000       0.006172
     1736.100000       0.006100
     1736.200000       0.006030
     1736.300000       0.005959
     1736.400000       0.005890
     1736.500000       0.005821
     1736.600000       0.005752
     1736.700000       0.005685
     1736.800000       0.005618
     1736.900000       0.005551
     1737.000000       0.005485
     1737.100000       0.005420
     1737.200000       0.005355
     1737.300000       0.005291
     1737.400000       0.005227
     1737.500000       0.005164
     1737.600000       0.005102
     1737.700000       0.005040
     1737.800000       0.004978
     1737.900000       0.004917
     1738.000000       0.004857
     1738.100000       0.004797
     1738.200000       0.004738
     1738.300000       0.004680
     1738.400000       0.004622
     1738.500000       0.004565
     1738.600000       0.004509
     1738.700000       0.004453
     1738.800000       0.004398
     1738.900000       0.004344
     1739.000000       0.004291
     1739.100000       0.004238
     1739.200000       0.004186
     1739.300000       0.004135
     1739.400000       0.004086
     1739.500000       0.004037
     1739.600000       0.003989
     1739.700000       0.003941
     1739.800000       0.003895
     1739.900000       0.003850
     1740.000000       0.003805
     1740.100000       0.003762
     1740.200000       0.003719
     1740.300000       0.003677
     1740.400000       0.003636
     1740.500000       0.003596
     1740.600000       0.003557
     1740.700000       0.003518
     1740.800000       0.003481
     1740.900000       0.003444
     1741.000000       0.003408
     1741.100000       0.003373
     1741.200000       0.003338
     1741.300000       0.003304
     1741.400000       0.003271
     1741.500000       0.003238
     1741.600000       0.003206
     1741.700000       0.003174
     1741.800000       0.003144
     1741.900000       0.003114
     1742.000000       0.003084
     1742.100000       0.003055
     1742.200000       0.003027
     1742.300000       0.002999
     1742.400000       0.002971
     1742.500000       0.002944
     1742.600000       0.002917
     1742.700000       0.002891
     1742.800000       0.002865
     1742.900000       0.002840
     1743.000000       0.002814
     1743.100000       0.002790
     1743.200000       0.002765
     1743.300000       0.002741
     1743.400000       0.002718
     1743.500000       0.002694
     1743.600000       0.002671
     1743.700000       0.002649
     1743.800000       0.002627
     1743.900000       0.002606
     1744.000000       0.002585
     1744.100000       0.002565
     1744.200000       0.002545
     1744.300000       0.002526
     1744.400000       0.002507
     1744.500000       0.002489
     1744.600000       0.002471
     1744.700000       0.002454
     1744.800000       0.002437
     1744.900000       0.002420
     1745.000000       0.002404
     1745.100000       0.002387
     1745.200000       0.002371
     1745.300000       0.002355
     1745.400000       0.002340
     1745.500000       0.002324
     1745.600000       0.002309
     1745.700000       0.002293
     1745.800000       0.002278
     1745.900000       0.002263
     1746.000000       0.002248
     1746.100000       0.002232
     1746.200000       0.002217
     1746.300000       0.002202
     1746.400000       0.002186
     1746.500000       0.002171
     1746.600000       0.002155
     1746.700000       0.002139
     1746.800000       0.002123
     1746.900000       0.002107
     1747.000000       0.002091
     1747.100000       0.002075
     1747.200000       0.002059
     1747.300000       0.002043
     1747.400000       0.002027
     1747.500000       0.002010
     1747.600000       0.001994
     1747.700000       0.001978
     1747.800000       0.001962
     1747.900000       0.001946
     1748.000000       0.001930
     1748.100000       0.001915
     1748.200000       0.001899
     1748.300000       0.001883
     1748.400000       0.001867
     1748.500000       0.001852
     1748.600000       0.001836
     1748.700000       0.001820
     1748.800000       0.001804
     1748.900000       0.001788
     1749.000000       0.001772
     1749.100000       0.001756
     1749.200000       0.001740
     1749.300000       0.001723
     1749.400000       0.001707
     1749.500000       0.001690
     1749.600000       0.001674
     1749.700000       0.001657
     1749.800000       0.001641
     1749.900000       0.001624
     1750.000000       0.001607
     1750.100000       0.001591
     1750.200000       0.001574
     1750.300000       0.001558
     1750.400000       0.001541
     1750.500000       0.001525
     1750.600000       0.001509
     1750.700000       0.001493
     1750.800000       0.001476
     1750.900000       0.001460
     1751.000000       0.001444
     1751.100000       0.001428
     1751.200000       0.001412
     1751.300000       0.001396
     1751.400000       0.001381
     1751.500000       0.001365
     1751.600000       0.001350
     1751.700000       0.001334
     1751.800000       0.001319
     1751.900000       0.001304
     1752.000000       0.001289
     1752.100000       0.001273
     1752.200000       0.001258
     1752.300000       0.001243
     1752.400000       0.001228
     1752.500000       0.001213
     1752.600000       0.001199
     1752.700000       0.001184
     1752.800000       0.001169
     1752.900000       0.001154
     1753.000000       0.001139
     1753.100000       0.001125
     1753.200000       0.001110
     1753.300000       0.001095
     1753.400000       0.001081
     1753.500000       0.001067
     1753.600000       0.001052
     1753.700000       0.001038
     1753.800000       0.001024
     1753.900000       0.001010
     1754.000000       0.000996
     1754.100000       0.000983
     1754.200000       0.000969
     1754.300000       0.000956
     1754.400000       0.000942
     1754.500000       0.000929
     1754.600000       0.000915
     1754.700000       0.000902
     1754.800000       0.000888
     1754.900000       0.000874
     1755.000000       0.000861
     1755.100000       0.000847
     1755.200000       0.000833
     1755.300000       0.000819
     1755.400000       0.000805
     1755.500000       0.000791
     1755.600000       0.000777
     1755.700000       0.000764
     1755.800000       0.000750
     1755.900000       0.000736
     1756.000000       0.000723
     1756.100000       0.000710
     1756.200000       0.000697
     1756.300000       0.000684
     1756.400000       0.000671
     1756.500000       0.000659
     1756.600000       0.000647
     1756.700000       0.000635
     1756.800000       0.000623
     1756.900000       0.000612
     1757.000000       0.000600
     1757.100000       0.000589
     1757.200000       0.000578
     1757.300000       0.000566
     1757.400000       0.000555
     1757.500000       0.000544
     1757.600000       0.000533
     1757.700000       0.000521
     1757.800000       0.000510
     1757.900000       0.000499
     1758.000000       0.000488
     1758.100000       0.000477
     1758.200000       0.000466
     1758.300000       0.000455
     1758.400000       0.000444
     1758.500000       0.000434
     1758.600000       0.000423
     1758.700000       0.000413
     1758.800000       0.000403
     1758.900000       0.000393
     1759.000000       0.000383
     1759.100000       0.000374
     1759.200000       0.000365
     1759.300000       0.000355
     1759.400000       0.000346
     1759.500000       0.000337
     1759.600000       0.000329
     1759.700000       0.000320
     1759.800000       0.000312
     1759.900000       0.000304
     1760.000000       0.000296
     1760.100000       0.000288
     1760.200000       0.000281
     1760.300000       0.000273
     1760.400000       0.000266
     1760.500000       0.000259
     1760.600000       0.000252
     1760.700000       0.000245
     1760.800000       0.000239
     1760.900000       0.000233
     1761.000000       0.000227
     1761.100000       0.000221
     1761.200000       0.000215
     1761.300000       0.000210
     1761.400000       0.000204
     1761.500000       0.000199
     1761.600000       0.000195
     1761.700000       0.000190
     1761.800000       0.000186
     1761.900000       0.000181
     1762.000000       0.000177
     1762.100000       0.000174
     1762.200000       0.000170
     1762.300000       0.000167
     1762.400000       0.000163
     1762.500000       0.000160
     1762.600000       0.000158
     1762.700000       0.000155
     1762.800000       0.000152
     1762.900000       0.000150
     1763.000000       0.000148
     1763.100000       0.000145
     1763.200000       0.000143
     1763.300000       0.000141
     1763.400000       0.000139
     1763.500000       0.000137
     1763.600000       0.000135
     1763.700000       0.000133
     1763.800000       0.000131
     1763.900000       0.000129
     1764.000000       0.000127
     1764.100000       0.000125
     1764.200000       0.000123
     1764.300000       0.000121
     1764.400000       0.000119
     1764.500000       0.000117
     1764.600000       0.000115
     1764.700000       0.000113
     1764.800000       0.000111
     1764.900000       0.000109
     1765.000000       0.000107
     1765.100000       0.000105
     1765.200000       0.000103
     1765.300000       0.000101
     1765.400000       0.000099
     1765.500000       0.000097
     1765.600000       0.000096
     1765.700000       0.000094
     1765.800000       0.000092
     1765.900000       0.000090
     1766.000000       0.000088
     1766.100000       0.000085
     1766.200000       0.000083
     1766.300000       0.000081
     1766.400000       0.000079
     1766.500000       0.000077
     1766.600000       0.000074
     1766.700000       0.000072
     1766.800000       0.000069
     1766.900000       0.000067
     1767.000000       0.000064
     1767.100000       0.000061
     1767.200000       0.000059
     1767.300000       0.000056
     1767.400000       0.000053
     1767.500000       0.000050
     1767.600000       0.000047
     1767.700000       0.000044
     1767.800000       0.000041
     1767.900000       0.000038
     1768.000000       0.000035
     1768.100000       0.000032
     1768.200000       0.000030
     1768.300000       0.000028
     1768.400000       0.000025
     1768.500000       0.000024
     1768.600000       0.000022
     1768.700000       0.000020
     1768.800000       0.000019
     1768.900000       0.000018
     1769.000000       0.000016
     1769.100000       0.000015
     1769.200000       0.000014
     1769.300000       0.000013
     1769.400000       0.000012
     1769.500000       0.000011
     1769.600000       0.000010
     1769.700000       0.000009
     1769.800000       0.000008
     1769.900000       0.000007
     1770.000000       0.000006
