04  , Filter noaa_14_avhrr_04.flt
Number of data points:
60
Wavenumber (cm-1)   Filter response
      854.701000       0.019807
      857.380300       0.023619
      860.059600       0.029542
      862.738900       0.039687
      865.418200       0.055552
      868.097500       0.077466
      870.776800       0.105672
      873.456100       0.142103
      876.135400       0.190593
      878.814700       0.254790
      881.494000       0.334074
      884.173300       0.424606
      886.852600       0.522282
      889.531900       0.621482
      892.211200       0.715621
      894.890500       0.798502
      897.569800       0.866684
      900.249100       0.918237
      902.928400       0.951373
      905.607700       0.968070
      908.287000       0.971512
      910.966300       0.965488
      913.645600       0.954213
      916.324900       0.942594
      919.004200       0.935278
      921.683500       0.932180
      924.362800       0.929684
      927.042100       0.924176
      929.721400       0.916430
      932.400700       0.912643
      935.080000       0.919442
      937.759300       0.939151
      940.438600       0.964455
      943.117900       0.986574
      945.797200       0.998365
      948.476500       1.000000
      951.155800       0.994492
      953.835100       0.984422
      956.514400       0.968328
      959.193700       0.940873
      961.873000       0.896549
      964.552300       0.831724
      967.231600       0.747431
      969.910900       0.645615
      972.590200       0.528686
      975.269500       0.405706
      977.948800       0.290223
      980.628100       0.195912
      983.307400       0.131655
      985.986700       0.091617
      988.666000       0.067142
      991.345300       0.049730
      994.024600       0.035002
      996.703900       0.023098
      999.383200       0.014388
     1002.062500       0.009139
     1004.741800       0.006791
     1007.421100       0.006378
     1010.100400       0.006933
     1012.779700       0.000000
