6,   channel 6 SRF (incl. blur) from file SRF_SIRS-A_Ch06.asc received July 2020 from Andrzej Kloneki
Number of data points:
281
Wavenumber (cm-1)   Filter response
      685.300000       0.000000
      685.350000       0.000000
      685.400000       0.000000
      685.450000       0.000000
      685.500000       0.000000
      685.550000       0.000000
      685.600000       0.000000
      685.650000       0.000000
      685.700000       0.000000
      685.750000       0.000000
      685.800000       0.000000
      685.850000       0.000000
      685.900000       0.000000
      685.950000       0.000000
      686.000000       0.000000
      686.050000       0.000000
      686.100000       0.000000
      686.150000       0.000000
      686.200000       0.000000
      686.250000       0.000000
      686.300000       0.000000
      686.350000       0.000000
      686.400000       0.000000
      686.450000       0.000000
      686.500000       0.000000
      686.550000       0.000000
      686.600000       0.000000
      686.650000       0.000100
      686.700000       0.000570
      686.750000       0.001425
      686.800000       0.002665
      686.850000       0.004291
      686.900000       0.006301
      686.950000       0.008697
      687.000000       0.011479
      687.050000       0.014645
      687.100000       0.018196
      687.150000       0.022133
      687.200000       0.026455
      687.250000       0.031162
      687.300000       0.036254
      687.350000       0.041732
      687.400000       0.047594
      687.450000       0.053842
      687.500000       0.060475
      687.550000       0.067494
      687.600000       0.074897
      687.650000       0.082686
      687.700000       0.090860
      687.750000       0.099419
      687.800000       0.108363
      687.850000       0.117692
      687.900000       0.127407
      687.950000       0.137507
      688.000000       0.147992
      688.050000       0.158762
      688.100000       0.169548
      688.150000       0.180333
      688.200000       0.191119
      688.250000       0.201904
      688.300000       0.212690
      688.350000       0.223475
      688.400000       0.234261
      688.450000       0.245046
      688.500000       0.255832
      688.550000       0.266617
      688.600000       0.277403
      688.650000       0.288188
      688.700000       0.298974
      688.750000       0.309759
      688.800000       0.320545
      688.850000       0.331330
      688.900000       0.342116
      688.950000       0.352901
      689.000000       0.363687
      689.050000       0.374472
      689.100000       0.385258
      689.150000       0.396043
      689.200000       0.406829
      689.250000       0.417614
      689.300000       0.428399
      689.350000       0.439185
      689.400000       0.449970
      689.450000       0.460756
      689.500000       0.471541
      689.550000       0.482327
      689.600000       0.493112
      689.650000       0.503898
      689.700000       0.514683
      689.750000       0.525469
      689.800000       0.536254
      689.850000       0.547040
      689.900000       0.557825
      689.950000       0.568611
      690.000000       0.579396
      690.050000       0.590182
      690.100000       0.600967
      690.150000       0.611753
      690.200000       0.622538
      690.250000       0.633324
      690.300000       0.644109
      690.350000       0.654895
      690.400000       0.665680
      690.450000       0.676466
      690.500000       0.687251
      690.550000       0.698037
      690.600000       0.708822
      690.650000       0.719608
      690.700000       0.730393
      690.750000       0.741179
      690.800000       0.751964
      690.850000       0.762750
      690.900000       0.773535
      690.950000       0.784320
      691.000000       0.795106
      691.050000       0.805891
      691.100000       0.816677
      691.150000       0.827462
      691.200000       0.838248
      691.250000       0.849033
      691.300000       0.859819
      691.350000       0.870604
      691.400000       0.881390
      691.450000       0.892175
      691.500000       0.902961
      691.550000       0.913746
      691.600000       0.924517
      691.650000       0.934902
      691.700000       0.944532
      691.750000       0.953391
      691.800000       0.961480
      691.850000       0.968799
      691.900000       0.975347
      691.950000       0.981125
      692.000000       0.986133
      692.050000       0.990370
      692.100000       0.993837
      692.150000       0.996533
      692.200000       0.998459
      692.250000       0.999615
      692.300000       1.000000
      692.350000       0.999615
      692.400000       0.998459
      692.450000       0.996533
      692.500000       0.993837
      692.550000       0.990370
      692.600000       0.986133
      692.650000       0.981125
      692.700000       0.975347
      692.750000       0.968799
      692.800000       0.961480
      692.850000       0.953391
      692.900000       0.944532
      692.950000       0.934902
      693.000000       0.924517
      693.050000       0.913746
      693.100000       0.902961
      693.150000       0.892175
      693.200000       0.881390
      693.250000       0.870604
      693.300000       0.859819
      693.350000       0.849033
      693.400000       0.838248
      693.450000       0.827462
      693.500000       0.816677
      693.550000       0.805891
      693.600000       0.795106
      693.650000       0.784320
      693.700000       0.773535
      693.750000       0.762750
      693.800000       0.751964
      693.850000       0.741179
      693.900000       0.730393
      693.950000       0.719608
      694.000000       0.708822
      694.050000       0.698037
      694.100000       0.687251
      694.150000       0.676466
      694.200000       0.665680
      694.250000       0.654895
      694.300000       0.644109
      694.350000       0.633324
      694.400000       0.622538
      694.450000       0.611753
      694.500000       0.600967
      694.550000       0.590182
      694.600000       0.579396
      694.650000       0.568611
      694.700000       0.557825
      694.750000       0.547040
      694.800000       0.536254
      694.850000       0.525469
      694.900000       0.514683
      694.950000       0.503898
      695.000000       0.493112
      695.050000       0.482327
      695.100000       0.471541
      695.150000       0.460756
      695.200000       0.449970
      695.250000       0.439185
      695.300000       0.428399
      695.350000       0.417614
      695.400000       0.406829
      695.450000       0.396043
      695.500000       0.385258
      695.550000       0.374472
      695.600000       0.363687
      695.650000       0.352901
      695.700000       0.342116
      695.750000       0.331330
      695.800000       0.320545
      695.850000       0.309759
      695.900000       0.298974
      695.950000       0.288188
      696.000000       0.277403
      696.050000       0.266617
      696.100000       0.255832
      696.150000       0.245046
      696.200000       0.234261
      696.250000       0.223475
      696.300000       0.212690
      696.350000       0.201904
      696.400000       0.191119
      696.450000       0.180333
      696.500000       0.169548
      696.550000       0.158762
      696.600000       0.147992
      696.650000       0.137507
      696.700000       0.127407
      696.750000       0.117692
      696.800000       0.108363
      696.850000       0.099419
      696.900000       0.090860
      696.950000       0.082686
      697.000000       0.074897
      697.050000       0.067494
      697.100000       0.060475
      697.150000       0.053842
      697.200000       0.047594
      697.250000       0.041732
      697.300000       0.036254
      697.350000       0.031162
      697.400000       0.026455
      697.450000       0.022133
      697.500000       0.018196
      697.550000       0.014645
      697.600000       0.011479
      697.650000       0.008697
      697.700000       0.006301
      697.750000       0.004291
      697.800000       0.002665
      697.850000       0.001425
      697.900000       0.000570
      697.950000       0.000100
      698.000000       0.000000
      698.050000       0.000000
      698.100000       0.000000
      698.150000       0.000000
      698.200000       0.000000
      698.250000       0.000000
      698.300000       0.000000
      698.350000       0.000000
      698.400000       0.000000
      698.450000       0.000000
      698.500000       0.000000
      698.550000       0.000000
      698.600000       0.000000
      698.650000       0.000000
      698.700000       0.000000
      698.750000       0.000000
      698.800000       0.000000
      698.850000       0.000000
      698.900000       0.000000
      698.950000       0.000000
      699.000000       0.000000
      699.050000       0.000000
      699.100000       0.000000
      699.150000       0.000000
      699.200000       0.000000
      699.250000       0.000000
      699.300000       0.000000
