2,   channel 2 SRF from file SRF_SSH-1_Delivery_220520/SRF_DMSP-F2_SSH_Chan02.asc received June 2022 from SPASCIA
Number of data points:
471
Wavenumber (cm-1)   Filter response
      334.500000       0.003400
      334.600000       0.003500
      334.700000       0.003600
      334.800000       0.003600
      334.900000       0.003700
      335.000000       0.003700
      335.100000       0.003900
      335.200000       0.004100
      335.300000       0.004300
      335.400000       0.004500
      335.500000       0.004700
      335.600000       0.004800
      335.700000       0.004900
      335.800000       0.005000
      335.900000       0.005200
      336.000000       0.005300
      336.100000       0.005500
      336.200000       0.005700
      336.300000       0.005900
      336.400000       0.006000
      336.500000       0.006200
      336.600000       0.006500
      336.700000       0.006700
      336.800000       0.007000
      336.900000       0.007200
      337.000000       0.007500
      337.100000       0.007700
      337.200000       0.008000
      337.300000       0.008200
      337.400000       0.008500
      337.500000       0.008700
      337.600000       0.009000
      337.700000       0.009300
      337.800000       0.009700
      337.900000       0.010000
      338.000000       0.010300
      338.100000       0.010700
      338.200000       0.011000
      338.300000       0.011400
      338.400000       0.011800
      338.500000       0.012100
      338.600000       0.012500
      338.700000       0.012900
      338.800000       0.013300
      338.900000       0.013600
      339.000000       0.014000
      339.100000       0.014500
      339.200000       0.015000
      339.300000       0.015500
      339.400000       0.016000
      339.500000       0.016500
      339.600000       0.017100
      339.700000       0.017800
      339.800000       0.018400
      339.900000       0.019000
      340.000000       0.019600
      340.100000       0.020300
      340.200000       0.021000
      340.300000       0.021700
      340.400000       0.022400
      340.500000       0.023100
      340.600000       0.023900
      340.700000       0.024700
      340.800000       0.025500
      340.900000       0.026300
      341.000000       0.027100
      341.100000       0.027900
      341.200000       0.028700
      341.300000       0.029500
      341.400000       0.030300
      341.500000       0.031200
      341.600000       0.032400
      341.700000       0.033600
      341.800000       0.034900
      341.900000       0.036100
      342.000000       0.037400
      342.100000       0.039300
      342.200000       0.041100
      342.300000       0.043000
      342.400000       0.044900
      342.500000       0.046700
      342.600000       0.048600
      342.700000       0.050500
      342.800000       0.052300
      342.900000       0.054200
      343.000000       0.056100
      343.100000       0.058600
      343.200000       0.061100
      343.300000       0.063600
      343.400000       0.066000
      343.500000       0.068500
      343.600000       0.071700
      343.700000       0.074800
      343.800000       0.077900
      343.900000       0.081000
      344.000000       0.084100
      344.100000       0.087200
      344.200000       0.090300
      344.300000       0.093500
      344.400000       0.096600
      344.500000       0.099700
      344.600000       0.104000
      344.700000       0.108400
      344.800000       0.112800
      344.900000       0.117100
      345.000000       0.121500
      345.100000       0.127700
      345.200000       0.134000
      345.300000       0.140200
      345.400000       0.146400
      345.500000       0.152600
      345.600000       0.160100
      345.700000       0.167600
      345.800000       0.175100
      345.900000       0.182600
      346.000000       0.190000
      346.100000       0.200000
      346.200000       0.210000
      346.300000       0.219900
      346.400000       0.229900
      346.500000       0.239900
      346.600000       0.251100
      346.700000       0.262300
      346.800000       0.273500
      346.900000       0.284700
      347.000000       0.296000
      347.100000       0.300300
      347.200000       0.304700
      347.300000       0.309000
      347.400000       0.313400
      347.500000       0.317800
      347.600000       0.336400
      347.700000       0.355100
      347.800000       0.373800
      347.900000       0.392500
      348.000000       0.411200
      348.100000       0.427400
      348.200000       0.443600
      348.300000       0.459800
      348.400000       0.476000
      348.500000       0.492200
      348.600000       0.507200
      348.700000       0.522100
      348.800000       0.537100
      348.900000       0.552000
      349.000000       0.567000
      349.100000       0.580100
      349.200000       0.593100
      349.300000       0.606200
      349.400000       0.619300
      349.500000       0.632400
      349.600000       0.646700
      349.700000       0.661100
      349.800000       0.675400
      349.900000       0.689700
      350.000000       0.704000
      350.100000       0.715300
      350.200000       0.726500
      350.300000       0.737700
      350.400000       0.748900
      350.500000       0.760100
      350.600000       0.773200
      350.700000       0.786300
      350.800000       0.799400
      350.900000       0.812500
      351.000000       0.825500
      351.100000       0.836100
      351.200000       0.846700
      351.300000       0.857300
      351.400000       0.867900
      351.500000       0.878500
      351.600000       0.885400
      351.700000       0.892200
      351.800000       0.899100
      351.900000       0.905900
      352.000000       0.912800
      352.100000       0.917100
      352.200000       0.921500
      352.300000       0.925900
      352.400000       0.930200
      352.500000       0.934600
      352.600000       0.938300
      352.700000       0.942100
      352.800000       0.945800
      352.900000       0.949500
      353.000000       0.953300
      353.100000       0.955800
      353.200000       0.958300
      353.300000       0.960700
      353.400000       0.963200
      353.500000       0.965700
      353.600000       0.968800
      353.700000       0.972000
      353.800000       0.975100
      353.900000       0.978200
      354.000000       0.981300
      354.100000       0.983200
      354.200000       0.985000
      354.300000       0.986900
      354.400000       0.988800
      354.500000       0.990700
      354.600000       0.991900
      354.700000       0.993100
      354.800000       0.994400
      354.900000       0.995600
      355.000000       0.996900
      355.100000       0.997500
      355.200000       0.998100
      355.300000       0.998800
      355.400000       0.999400
      355.500000       1.000000
      355.600000       0.999400
      355.700000       0.998800
      355.800000       0.998100
      355.900000       0.997500
      356.000000       0.996900
      356.100000       0.996300
      356.200000       0.995600
      356.300000       0.995000
      356.400000       0.994400
      356.500000       0.993800
      356.600000       0.993100
      356.700000       0.992500
      356.800000       0.991900
      356.900000       0.991300
      357.000000       0.990700
      357.100000       0.989400
      357.200000       0.988200
      357.300000       0.986900
      357.400000       0.985700
      357.500000       0.984400
      357.600000       0.983200
      357.700000       0.981900
      357.800000       0.980700
      357.900000       0.979400
      358.000000       0.978200
      358.100000       0.975700
      358.200000       0.973200
      358.300000       0.970700
      358.400000       0.968200
      358.500000       0.965700
      358.600000       0.962600
      358.700000       0.959500
      358.800000       0.956400
      358.900000       0.953300
      359.000000       0.950200
      359.100000       0.945200
      359.200000       0.940200
      359.300000       0.935200
      359.400000       0.930200
      359.500000       0.925200
      359.600000       0.920900
      359.700000       0.916500
      359.800000       0.912100
      359.900000       0.907800
      360.000000       0.903400
      360.100000       0.897200
      360.200000       0.891000
      360.300000       0.884700
      360.400000       0.878500
      360.500000       0.872300
      360.600000       0.866000
      360.700000       0.859800
      360.800000       0.853600
      360.900000       0.847400
      361.000000       0.841100
      361.100000       0.833000
      361.200000       0.824900
      361.300000       0.816800
      361.400000       0.808700
      361.500000       0.800600
      361.600000       0.791300
      361.700000       0.781900
      361.800000       0.772600
      361.900000       0.763200
      362.000000       0.753900
      362.100000       0.742700
      362.200000       0.731500
      362.300000       0.720200
      362.400000       0.709000
      362.500000       0.697800
      362.600000       0.682900
      362.700000       0.667900
      362.800000       0.653000
      362.900000       0.638000
      363.000000       0.623100
      363.100000       0.606900
      363.200000       0.590700
      363.300000       0.574500
      363.400000       0.558300
      363.500000       0.542100
      363.600000       0.525900
      363.700000       0.509700
      363.800000       0.493500
      363.900000       0.477300
      364.000000       0.461100
      364.100000       0.446700
      364.200000       0.432400
      364.300000       0.418100
      364.400000       0.403700
      364.500000       0.389400
      364.600000       0.375100
      364.700000       0.360700
      364.800000       0.346400
      364.900000       0.332100
      365.000000       0.317800
      365.100000       0.305900
      365.200000       0.294100
      365.300000       0.282200
      365.400000       0.270400
      365.500000       0.258600
      365.600000       0.249800
      365.700000       0.241100
      365.800000       0.232400
      365.900000       0.223700
      366.000000       0.215000
      366.100000       0.206200
      366.200000       0.197500
      366.300000       0.188800
      366.400000       0.180100
      366.500000       0.171300
      366.600000       0.165100
      366.700000       0.158900
      366.800000       0.152600
      366.900000       0.146400
      367.000000       0.140200
      367.100000       0.135800
      367.200000       0.131500
      367.300000       0.127100
      367.400000       0.122700
      367.500000       0.118400
      367.600000       0.114600
      367.700000       0.110900
      367.800000       0.107200
      367.900000       0.103400
      368.000000       0.099700
      368.100000       0.096600
      368.200000       0.093500
      368.300000       0.090300
      368.400000       0.087200
      368.500000       0.084100
      368.600000       0.081600
      368.700000       0.079100
      368.800000       0.076600
      368.900000       0.074100
      369.000000       0.071700
      369.100000       0.069200
      369.200000       0.066700
      369.300000       0.064200
      369.400000       0.061700
      369.500000       0.059200
      369.600000       0.057300
      369.700000       0.055500
      369.800000       0.053600
      369.900000       0.051700
      370.000000       0.049800
      370.100000       0.048000
      370.200000       0.046100
      370.300000       0.044200
      370.400000       0.042400
      370.500000       0.040500
      370.600000       0.039300
      370.700000       0.038000
      370.800000       0.036800
      370.900000       0.035500
      371.000000       0.034300
      371.100000       0.033300
      371.200000       0.032400
      371.300000       0.031500
      371.400000       0.030500
      371.500000       0.029600
      371.600000       0.028600
      371.700000       0.027600
      371.800000       0.026600
      371.900000       0.025600
      372.000000       0.024600
      372.100000       0.024000
      372.200000       0.023500
      372.300000       0.022900
      372.400000       0.022400
      372.500000       0.021800
      372.600000       0.021400
      372.700000       0.020900
      372.800000       0.020500
      372.900000       0.020100
      373.000000       0.019600
      373.100000       0.019200
      373.200000       0.018800
      373.300000       0.018300
      373.400000       0.017900
      373.500000       0.017400
      373.600000       0.017100
      373.700000       0.016800
      373.800000       0.016500
      373.900000       0.016200
      374.000000       0.015900
      374.100000       0.015500
      374.200000       0.015100
      374.300000       0.014800
      374.400000       0.014400
      374.500000       0.014000
      374.600000       0.013800
      374.700000       0.013500
      374.800000       0.013300
      374.900000       0.013000
      375.000000       0.012800
      375.100000       0.012500
      375.200000       0.012300
      375.300000       0.012000
      375.400000       0.011800
      375.500000       0.011500
      375.600000       0.011300
      375.700000       0.011000
      375.800000       0.010800
      375.900000       0.010500
      376.000000       0.010300
      376.100000       0.010100
      376.200000       0.009900
      376.300000       0.009700
      376.400000       0.009500
      376.500000       0.009300
      376.600000       0.009200
      376.700000       0.009000
      376.800000       0.008800
      376.900000       0.008600
      377.000000       0.008400
      377.100000       0.008200
      377.200000       0.008000
      377.300000       0.007900
      377.400000       0.007700
      377.500000       0.007500
      377.600000       0.007300
      377.700000       0.007100
      377.800000       0.006900
      377.900000       0.006700
      378.000000       0.006500
      378.100000       0.006400
      378.200000       0.006300
      378.300000       0.006200
      378.400000       0.006000
      378.500000       0.005900
      378.600000       0.005800
      378.700000       0.005700
      378.800000       0.005500
      378.900000       0.005400
      379.000000       0.005300
      379.100000       0.005200
      379.200000       0.005000
      379.300000       0.004900
      379.400000       0.004800
      379.500000       0.004700
      379.600000       0.004600
      379.700000       0.004500
      379.800000       0.004500
      379.900000       0.004400
      380.000000       0.004400
      380.100000       0.004200
      380.200000       0.004100
      380.300000       0.004000
      380.400000       0.003900
      380.500000       0.003700
      380.600000       0.003700
      380.700000       0.003600
      380.800000       0.003600
      380.900000       0.003500
      381.000000       0.003400
      381.100000       0.003400
      381.200000       0.003300
      381.300000       0.003200
      381.400000       0.003200
      381.500000       0.003100
