02 , goes_09_imager_03.flt
Number of data points:
2001
Wavenumber (cm-1)   Filter response
     1410.100000       0.012869
     1410.200000       0.013128
     1410.300000       0.013396
     1410.400000       0.013676
     1410.500000       0.013967
     1410.600000       0.014272
     1410.700000       0.014590
     1410.800000       0.014920
     1410.900000       0.015270
     1411.000000       0.015637
     1411.100000       0.016023
     1411.200000       0.016427
     1411.300000       0.016849
     1411.400000       0.017297
     1411.500000       0.017768
     1411.600000       0.018264
     1411.700000       0.018785
     1411.800000       0.019327
     1411.900000       0.019902
     1412.000000       0.020507
     1412.100000       0.021141
     1412.200000       0.021804
     1412.300000       0.022490
     1412.400000       0.023186
     1412.500000       0.023898
     1412.600000       0.024616
     1412.700000       0.025332
     1412.800000       0.026043
     1412.900000       0.026733
     1413.000000       0.027408
     1413.100000       0.028061
     1413.200000       0.028685
     1413.300000       0.029285
     1413.400000       0.029857
     1413.500000       0.030412
     1413.600000       0.030953
     1413.700000       0.031480
     1413.800000       0.031997
     1413.900000       0.032502
     1414.000000       0.033004
     1414.100000       0.033507
     1414.200000       0.034010
     1414.300000       0.034519
     1414.400000       0.035031
     1414.500000       0.035553
     1414.600000       0.036092
     1414.700000       0.036646
     1414.800000       0.037220
     1414.900000       0.037813
     1415.000000       0.038429
     1415.100000       0.039079
     1415.200000       0.039759
     1415.300000       0.040473
     1415.400000       0.041226
     1415.500000       0.042017
     1415.600000       0.042845
     1415.700000       0.043729
     1415.800000       0.044661
     1415.900000       0.045647
     1416.000000       0.046688
     1416.100000       0.047778
     1416.200000       0.048942
     1416.300000       0.050170
     1416.400000       0.051466
     1416.500000       0.052835
     1416.600000       0.054264
     1416.700000       0.055783
     1416.800000       0.057385
     1416.900000       0.059069
     1417.000000       0.060843
     1417.100000       0.062688
     1417.200000       0.064639
     1417.300000       0.066691
     1417.400000       0.068840
     1417.500000       0.071095
     1417.600000       0.073432
     1417.700000       0.075890
     1417.800000       0.078467
     1417.900000       0.081155
     1418.000000       0.083966
     1418.100000       0.086870
     1418.200000       0.089906
     1418.300000       0.093083
     1418.400000       0.096383
     1418.500000       0.099821
     1418.600000       0.103365
     1418.700000       0.107048
     1418.800000       0.110891
     1418.900000       0.114852
     1419.000000       0.118933
     1419.100000       0.123086
     1419.200000       0.127314
     1419.300000       0.131649
     1419.400000       0.136031
     1419.500000       0.140463
     1419.600000       0.144904
     1419.700000       0.149339
     1419.800000       0.153817
     1419.900000       0.158277
     1420.000000       0.162712
     1420.100000       0.167111
     1420.200000       0.171448
     1420.300000       0.175687
     1420.400000       0.179893
     1420.500000       0.184002
     1420.600000       0.188010
     1420.700000       0.191904
     1420.800000       0.195659
     1420.900000       0.199354
     1421.000000       0.202953
     1421.100000       0.206463
     1421.200000       0.209890
     1421.300000       0.213204
     1421.400000       0.216477
     1421.500000       0.219685
     1421.600000       0.222828
     1421.700000       0.225918
     1421.800000       0.228924
     1421.900000       0.231908
     1422.000000       0.234858
     1422.100000       0.237771
     1422.200000       0.240654
     1422.300000       0.243517
     1422.400000       0.246332
     1422.500000       0.249150
     1422.600000       0.251974
     1422.700000       0.254790
     1422.800000       0.257617
     1422.900000       0.260427
     1423.000000       0.263259
     1423.100000       0.266129
     1423.200000       0.269021
     1423.300000       0.271951
     1423.400000       0.274895
     1423.500000       0.277882
     1423.600000       0.280942
     1423.700000       0.284049
     1423.800000       0.287222
     1423.900000       0.290438
     1424.000000       0.293714
     1424.100000       0.297093
     1424.200000       0.300545
     1424.300000       0.304086
     1424.400000       0.307701
     1424.500000       0.311390
     1424.600000       0.315213
     1424.700000       0.319136
     1424.800000       0.323169
     1424.900000       0.327318
     1425.000000       0.331578
     1425.100000       0.335926
     1425.200000       0.340449
     1425.300000       0.345102
     1425.400000       0.349897
     1425.500000       0.354833
     1425.600000       0.359870
     1425.700000       0.365111
     1425.800000       0.370510
     1425.900000       0.376069
     1426.000000       0.381787
     1426.100000       0.387593
     1426.200000       0.393589
     1426.300000       0.399722
     1426.400000       0.405973
     1426.500000       0.412345
     1426.600000       0.418755
     1426.700000       0.425307
     1426.800000       0.431962
     1426.900000       0.438688
     1427.000000       0.445495
     1427.100000       0.452296
     1427.200000       0.459182
     1427.300000       0.466138
     1427.400000       0.473120
     1427.500000       0.480125
     1427.600000       0.487157
     1427.700000       0.494139
     1427.800000       0.501132
     1427.900000       0.508160
     1428.000000       0.515156
     1428.100000       0.522140
     1428.200000       0.529039
     1428.300000       0.535890
     1428.400000       0.542747
     1428.500000       0.549548
     1428.600000       0.556323
     1428.700000       0.563032
     1428.800000       0.569692
     1428.900000       0.576394
     1429.000000       0.583070
     1429.100000       0.589747
     1429.200000       0.596398
     1429.300000       0.603013
     1429.400000       0.609706
     1429.500000       0.616406
     1429.600000       0.623137
     1429.700000       0.629888
     1429.800000       0.636622
     1429.900000       0.643475
     1430.000000       0.650376
     1430.100000       0.657342
     1430.200000       0.664375
     1430.300000       0.671416
     1430.400000       0.678614
     1430.500000       0.685905
     1430.600000       0.693292
     1430.700000       0.700758
     1430.800000       0.708290
     1430.900000       0.715787
     1431.000000       0.723372
     1431.100000       0.730976
     1431.200000       0.738561
     1431.300000       0.746126
     1431.400000       0.753565
     1431.500000       0.760984
     1431.600000       0.768338
     1431.700000       0.775575
     1431.800000       0.782697
     1431.900000       0.789608
     1432.000000       0.796385
     1432.100000       0.803026
     1432.200000       0.809491
     1432.300000       0.815806
     1432.400000       0.821913
     1432.500000       0.827875
     1432.600000       0.833722
     1432.700000       0.839408
     1432.800000       0.844958
     1432.900000       0.850329
     1433.000000       0.855555
     1433.100000       0.860684
     1433.200000       0.865667
     1433.300000       0.870521
     1433.400000       0.875220
     1433.500000       0.879767
     1433.600000       0.884217
     1433.700000       0.888521
     1433.800000       0.892694
     1433.900000       0.896717
     1434.000000       0.900585
     1434.100000       0.904352
     1434.200000       0.907983
     1434.300000       0.911485
     1434.400000       0.914853
     1434.500000       0.918072
     1434.600000       0.921192
     1434.700000       0.924186
     1434.800000       0.927057
     1434.900000       0.929807
     1435.000000       0.932435
     1435.100000       0.934927
     1435.200000       0.937321
     1435.300000       0.939601
     1435.400000       0.941769
     1435.500000       0.943828
     1435.600000       0.945762
     1435.700000       0.947605
     1435.800000       0.949347
     1435.900000       0.950986
     1436.000000       0.952529
     1436.100000       0.953961
     1436.200000       0.955307
     1436.300000       0.956566
     1436.400000       0.957732
     1436.500000       0.958814
     1436.600000       0.959799
     1436.700000       0.960705
     1436.800000       0.961536
     1436.900000       0.962287
     1437.000000       0.962961
     1437.100000       0.963564
     1437.200000       0.964095
     1437.300000       0.964566
     1437.400000       0.964988
     1437.500000       0.965352
     1437.600000       0.965664
     1437.700000       0.965916
     1437.800000       0.966115
     1437.900000       0.966271
     1438.000000       0.966377
     1438.100000       0.966437
     1438.200000       0.966445
     1438.300000       0.966405
     1438.400000       0.966330
     1438.500000       0.966211
     1438.600000       0.966053
     1438.700000       0.965853
     1438.800000       0.965609
     1438.900000       0.965338
     1439.000000       0.965028
     1439.100000       0.964682
     1439.200000       0.964297
     1439.300000       0.963867
     1439.400000       0.963408
     1439.500000       0.962910
     1439.600000       0.962375
     1439.700000       0.961800
     1439.800000       0.961183
     1439.900000       0.960532
     1440.000000       0.959843
     1440.100000       0.959115
     1440.200000       0.958349
     1440.300000       0.957544
     1440.400000       0.956698
     1440.500000       0.955816
     1440.600000       0.954896
     1440.700000       0.953938
     1440.800000       0.952945
     1440.900000       0.951930
     1441.000000       0.950897
     1441.100000       0.949854
     1441.200000       0.948807
     1441.300000       0.947762
     1441.400000       0.946729
     1441.500000       0.945710
     1441.600000       0.944713
     1441.700000       0.943744
     1441.800000       0.942809
     1441.900000       0.941918
     1442.000000       0.941069
     1442.100000       0.940258
     1442.200000       0.939488
     1442.300000       0.938754
     1442.400000       0.938058
     1442.500000       0.937397
     1442.600000       0.936766
     1442.700000       0.936167
     1442.800000       0.935597
     1442.900000       0.935056
     1443.000000       0.934542
     1443.100000       0.934046
     1443.200000       0.933570
     1443.300000       0.933112
     1443.400000       0.932667
     1443.500000       0.932240
     1443.600000       0.931838
     1443.700000       0.931460
     1443.800000       0.931115
     1443.900000       0.930809
     1444.000000       0.930546
     1444.100000       0.930335
     1444.200000       0.930176
     1444.300000       0.930077
     1444.400000       0.930044
     1444.500000       0.930081
     1444.600000       0.930195
     1444.700000       0.930386
     1444.800000       0.930649
     1444.900000       0.930976
     1445.000000       0.931361
     1445.100000       0.931793
     1445.200000       0.932269
     1445.300000       0.932782
     1445.400000       0.933322
     1445.500000       0.933883
     1445.600000       0.934454
     1445.700000       0.935034
     1445.800000       0.935614
     1445.900000       0.936186
     1446.000000       0.936742
     1446.100000       0.937275
     1446.200000       0.937777
     1446.300000       0.938253
     1446.400000       0.938712
     1446.500000       0.939158
     1446.600000       0.939597
     1446.700000       0.940034
     1446.800000       0.940479
     1446.900000       0.940938
     1447.000000       0.941404
     1447.100000       0.941874
     1447.200000       0.942337
     1447.300000       0.942791
     1447.400000       0.943235
     1447.500000       0.943660
     1447.600000       0.944060
     1447.700000       0.944429
     1447.800000       0.944761
     1447.900000       0.945056
     1448.000000       0.945306
     1448.100000       0.945504
     1448.200000       0.945647
     1448.300000       0.945734
     1448.400000       0.945774
     1448.500000       0.945770
     1448.600000       0.945723
     1448.700000       0.945638
     1448.800000       0.945521
     1448.900000       0.945381
     1449.000000       0.945222
     1449.100000       0.945050
     1449.200000       0.944872
     1449.300000       0.944693
     1449.400000       0.944516
     1449.500000       0.944353
     1449.600000       0.944206
     1449.700000       0.944083
     1449.800000       0.943990
     1449.900000       0.943923
     1450.000000       0.943888
     1450.100000       0.943882
     1450.200000       0.943902
     1450.300000       0.943948
     1450.400000       0.944012
     1450.500000       0.944100
     1450.600000       0.944211
     1450.700000       0.944341
     1450.800000       0.944490
     1450.900000       0.944654
     1451.000000       0.944839
     1451.100000       0.945048
     1451.200000       0.945280
     1451.300000       0.945540
     1451.400000       0.945826
     1451.500000       0.946142
     1451.600000       0.946495
     1451.700000       0.946882
     1451.800000       0.947306
     1451.900000       0.947769
     1452.000000       0.948273
     1452.100000       0.948823
     1452.200000       0.949420
     1452.300000       0.950064
     1452.400000       0.950760
     1452.500000       0.951507
     1452.600000       0.952302
     1452.700000       0.953147
     1452.800000       0.954037
     1452.900000       0.954969
     1453.000000       0.955942
     1453.100000       0.956952
     1453.200000       0.958000
     1453.300000       0.959085
     1453.400000       0.960208
     1453.500000       0.961369
     1453.600000       0.962569
     1453.700000       0.963806
     1453.800000       0.965082
     1453.900000       0.966398
     1454.000000       0.967752
     1454.100000       0.969148
     1454.200000       0.970582
     1454.300000       0.972057
     1454.400000       0.973572
     1454.500000       0.975124
     1454.600000       0.976706
     1454.700000       0.978313
     1454.800000       0.979937
     1454.900000       0.981570
     1455.000000       0.983200
     1455.100000       0.984815
     1455.200000       0.986406
     1455.300000       0.987962
     1455.400000       0.989470
     1455.500000       0.990921
     1455.600000       0.992303
     1455.700000       0.993606
     1455.800000       0.994818
     1455.900000       0.995928
     1456.000000       0.996926
     1456.100000       0.997799
     1456.200000       0.998540
     1456.300000       0.999135
     1456.400000       0.999577
     1456.500000       0.999866
     1456.600000       1.000000
     1456.700000       0.999986
     1456.800000       0.999826
     1456.900000       0.999521
     1457.000000       0.999078
     1457.100000       0.998498
     1457.200000       0.997788
     1457.300000       0.996952
     1457.400000       0.995988
     1457.500000       0.994904
     1457.600000       0.993703
     1457.700000       0.992388
     1457.800000       0.990969
     1457.900000       0.989436
     1458.000000       0.987799
     1458.100000       0.986058
     1458.200000       0.984217
     1458.300000       0.982282
     1458.400000       0.980255
     1458.500000       0.978148
     1458.600000       0.975971
     1458.700000       0.973731
     1458.800000       0.971440
     1458.900000       0.969108
     1459.000000       0.966738
     1459.100000       0.964341
     1459.200000       0.961926
     1459.300000       0.959502
     1459.400000       0.957083
     1459.500000       0.954669
     1459.600000       0.952270
     1459.700000       0.949896
     1459.800000       0.947550
     1459.900000       0.945241
     1460.000000       0.942969
     1460.100000       0.940737
     1460.200000       0.938554
     1460.300000       0.936415
     1460.400000       0.934325
     1460.500000       0.932276
     1460.600000       0.930265
     1460.700000       0.928293
     1460.800000       0.926357
     1460.900000       0.924459
     1461.000000       0.922596
     1461.100000       0.920759
     1461.200000       0.918952
     1461.300000       0.917172
     1461.400000       0.915425
     1461.500000       0.913715
     1461.600000       0.912037
     1461.700000       0.910402
     1461.800000       0.908812
     1461.900000       0.907272
     1462.000000       0.905788
     1462.100000       0.904366
     1462.200000       0.902992
     1462.300000       0.901676
     1462.400000       0.900414
     1462.500000       0.899207
     1462.600000       0.898061
     1462.700000       0.896956
     1462.800000       0.895902
     1462.900000       0.894898
     1463.000000       0.893942
     1463.100000       0.893040
     1463.200000       0.892177
     1463.300000       0.891358
     1463.400000       0.890583
     1463.500000       0.889851
     1463.600000       0.889167
     1463.700000       0.888514
     1463.800000       0.887891
     1463.900000       0.887293
     1464.000000       0.886714
     1464.100000       0.886154
     1464.200000       0.885602
     1464.300000       0.885057
     1464.400000       0.884519
     1464.500000       0.883983
     1464.600000       0.883449
     1464.700000       0.882912
     1464.800000       0.882367
     1464.900000       0.881814
     1465.000000       0.881249
     1465.100000       0.880670
     1465.200000       0.880076
     1465.300000       0.879463
     1465.400000       0.878825
     1465.500000       0.878164
     1465.600000       0.877475
     1465.700000       0.876759
     1465.800000       0.876012
     1465.900000       0.875227
     1466.000000       0.874408
     1466.100000       0.873553
     1466.200000       0.872668
     1466.300000       0.871753
     1466.400000       0.870806
     1466.500000       0.869833
     1466.600000       0.868835
     1466.700000       0.867814
     1466.800000       0.866776
     1466.900000       0.865714
     1467.000000       0.864634
     1467.100000       0.863540
     1467.200000       0.862433
     1467.300000       0.861317
     1467.400000       0.860188
     1467.500000       0.859052
     1467.600000       0.857918
     1467.700000       0.856790
     1467.800000       0.855675
     1467.900000       0.854584
     1468.000000       0.853511
     1468.100000       0.852464
     1468.200000       0.851447
     1468.300000       0.850462
     1468.400000       0.849520
     1468.500000       0.848613
     1468.600000       0.847747
     1468.700000       0.846929
     1468.800000       0.846158
     1468.900000       0.845442
     1469.000000       0.844773
     1469.100000       0.844155
     1469.200000       0.843591
     1469.300000       0.843081
     1469.400000       0.842632
     1469.500000       0.842238
     1469.600000       0.841901
     1469.700000       0.841625
     1469.800000       0.841410
     1469.900000       0.841259
     1470.000000       0.841166
     1470.100000       0.841124
     1470.200000       0.841135
     1470.300000       0.841193
     1470.400000       0.841299
     1470.500000       0.841448
     1470.600000       0.841632
     1470.700000       0.841852
     1470.800000       0.842101
     1470.900000       0.842375
     1471.000000       0.842670
     1471.100000       0.842983
     1471.200000       0.843303
     1471.300000       0.843631
     1471.400000       0.843960
     1471.500000       0.844286
     1471.600000       0.844607
     1471.700000       0.844912
     1471.800000       0.845202
     1471.900000       0.845471
     1472.000000       0.845718
     1472.100000       0.845942
     1472.200000       0.846135
     1472.300000       0.846296
     1472.400000       0.846423
     1472.500000       0.846513
     1472.600000       0.846564
     1472.700000       0.846569
     1472.800000       0.846529
     1472.900000       0.846443
     1473.000000       0.846311
     1473.100000       0.846136
     1473.200000       0.845917
     1473.300000       0.845655
     1473.400000       0.845351
     1473.500000       0.845006
     1473.600000       0.844622
     1473.700000       0.844198
     1473.800000       0.843741
     1473.900000       0.843256
     1474.000000       0.842750
     1474.100000       0.842228
     1474.200000       0.841696
     1474.300000       0.841158
     1474.400000       0.840612
     1474.500000       0.840053
     1474.600000       0.839479
     1474.700000       0.838883
     1474.800000       0.838263
     1474.900000       0.837616
     1475.000000       0.836939
     1475.100000       0.836226
     1475.200000       0.835479
     1475.300000       0.834707
     1475.400000       0.833919
     1475.500000       0.833124
     1475.600000       0.832330
     1475.700000       0.831544
     1475.800000       0.830775
     1475.900000       0.830030
     1476.000000       0.829316
     1476.100000       0.828640
     1476.200000       0.828008
     1476.300000       0.827420
     1476.400000       0.826873
     1476.500000       0.826367
     1476.600000       0.825898
     1476.700000       0.825465
     1476.800000       0.825064
     1476.900000       0.824692
     1477.000000       0.824353
     1477.100000       0.824043
     1477.200000       0.823761
     1477.300000       0.823506
     1477.400000       0.823273
     1477.500000       0.823067
     1477.600000       0.822883
     1477.700000       0.822718
     1477.800000       0.822568
     1477.900000       0.822426
     1478.000000       0.822295
     1478.100000       0.822167
     1478.200000       0.822040
     1478.300000       0.821909
     1478.400000       0.821773
     1478.500000       0.821639
     1478.600000       0.821514
     1478.700000       0.821404
     1478.800000       0.821317
     1478.900000       0.821260
     1479.000000       0.821239
     1479.100000       0.821263
     1479.200000       0.821337
     1479.300000       0.821460
     1479.400000       0.821624
     1479.500000       0.821826
     1479.600000       0.822064
     1479.700000       0.822331
     1479.800000       0.822622
     1479.900000       0.822931
     1480.000000       0.823254
     1480.100000       0.823591
     1480.200000       0.823932
     1480.300000       0.824275
     1480.400000       0.824615
     1480.500000       0.824945
     1480.600000       0.825261
     1480.700000       0.825564
     1480.800000       0.825853
     1480.900000       0.826128
     1481.000000       0.826391
     1481.100000       0.826640
     1481.200000       0.826879
     1481.300000       0.827109
     1481.400000       0.827328
     1481.500000       0.827540
     1481.600000       0.827744
     1481.700000       0.827947
     1481.800000       0.828147
     1481.900000       0.828347
     1482.000000       0.828550
     1482.100000       0.828758
     1482.200000       0.828982
     1482.300000       0.829242
     1482.400000       0.829557
     1482.500000       0.829944
     1482.600000       0.830419
     1482.700000       0.831006
     1482.800000       0.831723
     1482.900000       0.832586
     1483.000000       0.833617
     1483.100000       0.834822
     1483.200000       0.836196
     1483.300000       0.837680
     1483.400000       0.839205
     1483.500000       0.840706
     1483.600000       0.842150
     1483.700000       0.843538
     1483.800000       0.844894
     1483.900000       0.846240
     1484.000000       0.847582
     1484.100000       0.848940
     1484.200000       0.850321
     1484.300000       0.851746
     1484.400000       0.853228
     1484.500000       0.854753
     1484.600000       0.856316
     1484.700000       0.857903
     1484.800000       0.859508
     1484.900000       0.861139
     1485.000000       0.862775
     1485.100000       0.864414
     1485.200000       0.866044
     1485.300000       0.867654
     1485.400000       0.869253
     1485.500000       0.870826
     1485.600000       0.872376
     1485.700000       0.873903
     1485.800000       0.875400
     1485.900000       0.876884
     1486.000000       0.878346
     1486.100000       0.879787
     1486.200000       0.881209
     1486.300000       0.882610
     1486.400000       0.883986
     1486.500000       0.885350
     1486.600000       0.886694
     1486.700000       0.888020
     1486.800000       0.889328
     1486.900000       0.890611
     1487.000000       0.891880
     1487.100000       0.893133
     1487.200000       0.894366
     1487.300000       0.895583
     1487.400000       0.896777
     1487.500000       0.897957
     1487.600000       0.899123
     1487.700000       0.900273
     1487.800000       0.901408
     1487.900000       0.902521
     1488.000000       0.903622
     1488.100000       0.904704
     1488.200000       0.905760
     1488.300000       0.906785
     1488.400000       0.907769
     1488.500000       0.908712
     1488.600000       0.909613
     1488.700000       0.910461
     1488.800000       0.911252
     1488.900000       0.911981
     1489.000000       0.912640
     1489.100000       0.913225
     1489.200000       0.913741
     1489.300000       0.914183
     1489.400000       0.914557
     1489.500000       0.914863
     1489.600000       0.915103
     1489.700000       0.915287
     1489.800000       0.915412
     1489.900000       0.915483
     1490.000000       0.915501
     1490.100000       0.915469
     1490.200000       0.915393
     1490.300000       0.915275
     1490.400000       0.915116
     1490.500000       0.914921
     1490.600000       0.914689
     1490.700000       0.914428
     1490.800000       0.914140
     1490.900000       0.913826
     1491.000000       0.913490
     1491.100000       0.913135
     1491.200000       0.912763
     1491.300000       0.912382
     1491.400000       0.911992
     1491.500000       0.911598
     1491.600000       0.911204
     1491.700000       0.910812
     1491.800000       0.910427
     1491.900000       0.910052
     1492.000000       0.909692
     1492.100000       0.909350
     1492.200000       0.909029
     1492.300000       0.908733
     1492.400000       0.908466
     1492.500000       0.908231
     1492.600000       0.908033
     1492.700000       0.907874
     1492.800000       0.907759
     1492.900000       0.907691
     1493.000000       0.907671
     1493.100000       0.907701
     1493.200000       0.907779
     1493.300000       0.907905
     1493.400000       0.908078
     1493.500000       0.908298
     1493.600000       0.908563
     1493.700000       0.908873
     1493.800000       0.909227
     1493.900000       0.909624
     1494.000000       0.910065
     1494.100000       0.910548
     1494.200000       0.911073
     1494.300000       0.911637
     1494.400000       0.912243
     1494.500000       0.912888
     1494.600000       0.913572
     1494.700000       0.914293
     1494.800000       0.915052
     1494.900000       0.915848
     1495.000000       0.916677
     1495.100000       0.917536
     1495.200000       0.918419
     1495.300000       0.919323
     1495.400000       0.920244
     1495.500000       0.921175
     1495.600000       0.922111
     1495.700000       0.923045
     1495.800000       0.923971
     1495.900000       0.924884
     1496.000000       0.925778
     1496.100000       0.926647
     1496.200000       0.927484
     1496.300000       0.928284
     1496.400000       0.929041
     1496.500000       0.929748
     1496.600000       0.930401
     1496.700000       0.930992
     1496.800000       0.931516
     1496.900000       0.931969
     1497.000000       0.932348
     1497.100000       0.932652
     1497.200000       0.932880
     1497.300000       0.933030
     1497.400000       0.933099
     1497.500000       0.933088
     1497.600000       0.932993
     1497.700000       0.932812
     1497.800000       0.932545
     1497.900000       0.932193
     1498.000000       0.931753
     1498.100000       0.931223
     1498.200000       0.930604
     1498.300000       0.929894
     1498.400000       0.929100
     1498.500000       0.928225
     1498.600000       0.927269
     1498.700000       0.926241
     1498.800000       0.925148
     1498.900000       0.923999
     1499.000000       0.922805
     1499.100000       0.921579
     1499.200000       0.920321
     1499.300000       0.919049
     1499.400000       0.917771
     1499.500000       0.916497
     1499.600000       0.915240
     1499.700000       0.914003
     1499.800000       0.912800
     1499.900000       0.911640
     1500.000000       0.910534
     1500.100000       0.909493
     1500.200000       0.908523
     1500.300000       0.907634
     1500.400000       0.906832
     1500.500000       0.906114
     1500.600000       0.905478
     1500.700000       0.904922
     1500.800000       0.904441
     1500.900000       0.904034
     1501.000000       0.903700
     1501.100000       0.903441
     1501.200000       0.903258
     1501.300000       0.903151
     1501.400000       0.903120
     1501.500000       0.903165
     1501.600000       0.903287
     1501.700000       0.903483
     1501.800000       0.903756
     1501.900000       0.904106
     1502.000000       0.904532
     1502.100000       0.905034
     1502.200000       0.905613
     1502.300000       0.906269
     1502.400000       0.907001
     1502.500000       0.907811
     1502.600000       0.908696
     1502.700000       0.909655
     1502.800000       0.910680
     1502.900000       0.911765
     1503.000000       0.912905
     1503.100000       0.914095
     1503.200000       0.915336
     1503.300000       0.916624
     1503.400000       0.917955
     1503.500000       0.919327
     1503.600000       0.920737
     1503.700000       0.922183
     1503.800000       0.923663
     1503.900000       0.925175
     1504.000000       0.926713
     1504.100000       0.928277
     1504.200000       0.929864
     1504.300000       0.931472
     1504.400000       0.933098
     1504.500000       0.934738
     1504.600000       0.936387
     1504.700000       0.938036
     1504.800000       0.939677
     1504.900000       0.941304
     1505.000000       0.942904
     1505.100000       0.944471
     1505.200000       0.945998
     1505.300000       0.947476
     1505.400000       0.948895
     1505.500000       0.950251
     1505.600000       0.951532
     1505.700000       0.952731
     1505.800000       0.953840
     1505.900000       0.954850
     1506.000000       0.955756
     1506.100000       0.956546
     1506.200000       0.957214
     1506.300000       0.957750
     1506.400000       0.958148
     1506.500000       0.958402
     1506.600000       0.958512
     1506.700000       0.958482
     1506.800000       0.958315
     1506.900000       0.958016
     1507.000000       0.957588
     1507.100000       0.957034
     1507.200000       0.956357
     1507.300000       0.955562
     1507.400000       0.954651
     1507.500000       0.953629
     1507.600000       0.952499
     1507.700000       0.951264
     1507.800000       0.949928
     1507.900000       0.948496
     1508.000000       0.946978
     1508.100000       0.945383
     1508.200000       0.943718
     1508.300000       0.941993
     1508.400000       0.940217
     1508.500000       0.938403
     1508.600000       0.936560
     1508.700000       0.934700
     1508.800000       0.932834
     1508.900000       0.930975
     1509.000000       0.929134
     1509.100000       0.927320
     1509.200000       0.925547
     1509.300000       0.923825
     1509.400000       0.922167
     1509.500000       0.920583
     1509.600000       0.919075
     1509.700000       0.917649
     1509.800000       0.916295
     1509.900000       0.915002
     1510.000000       0.913766
     1510.100000       0.912571
     1510.200000       0.911423
     1510.300000       0.910311
     1510.400000       0.909223
     1510.500000       0.908148
     1510.600000       0.907069
     1510.700000       0.905980
     1510.800000       0.904868
     1510.900000       0.903720
     1511.000000       0.902534
     1511.100000       0.901320
     1511.200000       0.900090
     1511.300000       0.898853
     1511.400000       0.897618
     1511.500000       0.896396
     1511.600000       0.895195
     1511.700000       0.894030
     1511.800000       0.892905
     1511.900000       0.891828
     1512.000000       0.890812
     1512.100000       0.889863
     1512.200000       0.888993
     1512.300000       0.888210
     1512.400000       0.887515
     1512.500000       0.886921
     1512.600000       0.886432
     1512.700000       0.886058
     1512.800000       0.885803
     1512.900000       0.885674
     1513.000000       0.885677
     1513.100000       0.885806
     1513.200000       0.886047
     1513.300000       0.886385
     1513.400000       0.886809
     1513.500000       0.887302
     1513.600000       0.887852
     1513.700000       0.888444
     1513.800000       0.889062
     1513.900000       0.889695
     1514.000000       0.890329
     1514.100000       0.890947
     1514.200000       0.891537
     1514.300000       0.892084
     1514.400000       0.892577
     1514.500000       0.893011
     1514.600000       0.893395
     1514.700000       0.893737
     1514.800000       0.894041
     1514.900000       0.894321
     1515.000000       0.894576
     1515.100000       0.894815
     1515.200000       0.895047
     1515.300000       0.895277
     1515.400000       0.895521
     1515.500000       0.895774
     1515.600000       0.896047
     1515.700000       0.896349
     1515.800000       0.896687
     1515.900000       0.897063
     1516.000000       0.897476
     1516.100000       0.897916
     1516.200000       0.898379
     1516.300000       0.898865
     1516.400000       0.899367
     1516.500000       0.899887
     1516.600000       0.900416
     1516.700000       0.900949
     1516.800000       0.901485
     1516.900000       0.902019
     1517.000000       0.902551
     1517.100000       0.903074
     1517.200000       0.903581
     1517.300000       0.904074
     1517.400000       0.904546
     1517.500000       0.904997
     1517.600000       0.905425
     1517.700000       0.905820
     1517.800000       0.906182
     1517.900000       0.906509
     1518.000000       0.906795
     1518.100000       0.907041
     1518.200000       0.907245
     1518.300000       0.907391
     1518.400000       0.907482
     1518.500000       0.907513
     1518.600000       0.907482
     1518.700000       0.907391
     1518.800000       0.907224
     1518.900000       0.906993
     1519.000000       0.906702
     1519.100000       0.906355
     1519.200000       0.905969
     1519.300000       0.905524
     1519.400000       0.905033
     1519.500000       0.904503
     1519.600000       0.903936
     1519.700000       0.903351
     1519.800000       0.902728
     1519.900000       0.902079
     1520.000000       0.901411
     1520.100000       0.900728
     1520.200000       0.900032
     1520.300000       0.899341
     1520.400000       0.898642
     1520.500000       0.897938
     1520.600000       0.897243
     1520.700000       0.896555
     1520.800000       0.895890
     1520.900000       0.895235
     1521.000000       0.894583
     1521.100000       0.893937
     1521.200000       0.893292
     1521.300000       0.892651
     1521.400000       0.892004
     1521.500000       0.891343
     1521.600000       0.890670
     1521.700000       0.889980
     1521.800000       0.889274
     1521.900000       0.888548
     1522.000000       0.887789
     1522.100000       0.887003
     1522.200000       0.886186
     1522.300000       0.885339
     1522.400000       0.884461
     1522.500000       0.883539
     1522.600000       0.882580
     1522.700000       0.881578
     1522.800000       0.880535
     1522.900000       0.879452
     1523.000000       0.878313
     1523.100000       0.877126
     1523.200000       0.875886
     1523.300000       0.874593
     1523.400000       0.873251
     1523.500000       0.871843
     1523.600000       0.870375
     1523.700000       0.868843
     1523.800000       0.867251
     1523.900000       0.865615
     1524.000000       0.863927
     1524.100000       0.862206
     1524.200000       0.860464
     1524.300000       0.858708
     1524.400000       0.856961
     1524.500000       0.855215
     1524.600000       0.853484
     1524.700000       0.851784
     1524.800000       0.850119
     1524.900000       0.848507
     1525.000000       0.846936
     1525.100000       0.845412
     1525.200000       0.843941
     1525.300000       0.842526
     1525.400000       0.841173
     1525.500000       0.839881
     1525.600000       0.838651
     1525.700000       0.837491
     1525.800000       0.836401
     1525.900000       0.835387
     1526.000000       0.834449
     1526.100000       0.833587
     1526.200000       0.832800
     1526.300000       0.832090
     1526.400000       0.831455
     1526.500000       0.830895
     1526.600000       0.830410
     1526.700000       0.830000
     1526.800000       0.829665
     1526.900000       0.829405
     1527.000000       0.829212
     1527.100000       0.829072
     1527.200000       0.828982
     1527.300000       0.828924
     1527.400000       0.828888
     1527.500000       0.828860
     1527.600000       0.828825
     1527.700000       0.828782
     1527.800000       0.828715
     1527.900000       0.828627
     1528.000000       0.828519
     1528.100000       0.828392
     1528.200000       0.828255
     1528.300000       0.828107
     1528.400000       0.827952
     1528.500000       0.827791
     1528.600000       0.827628
     1528.700000       0.827465
     1528.800000       0.827305
     1528.900000       0.827153
     1529.000000       0.827008
     1529.100000       0.826871
     1529.200000       0.826739
     1529.300000       0.826613
     1529.400000       0.826489
     1529.500000       0.826367
     1529.600000       0.826245
     1529.700000       0.826120
     1529.800000       0.825990
     1529.900000       0.825851
     1530.000000       0.825700
     1530.100000       0.825534
     1530.200000       0.825352
     1530.300000       0.825148
     1530.400000       0.824928
     1530.500000       0.824704
     1530.600000       0.824492
     1530.700000       0.824304
     1530.800000       0.824155
     1530.900000       0.824060
     1531.000000       0.824016
     1531.100000       0.823981
     1531.200000       0.823889
     1531.300000       0.823683
     1531.400000       0.823302
     1531.500000       0.822681
     1531.600000       0.821762
     1531.700000       0.820481
     1531.800000       0.818789
     1531.900000       0.816633
     1532.000000       0.813929
     1532.100000       0.810760
     1532.200000       0.807319
     1532.300000       0.803815
     1532.400000       0.800472
     1532.500000       0.797430
     1532.600000       0.794924
     1532.700000       0.793034
     1532.800000       0.791651
     1532.900000       0.790652
     1533.000000       0.789917
     1533.100000       0.789310
     1533.200000       0.788714
     1533.300000       0.788006
     1533.400000       0.787060
     1533.500000       0.785767
     1533.600000       0.783986
     1533.700000       0.781600
     1533.800000       0.778492
     1533.900000       0.774534
     1534.000000       0.769659
     1534.100000       0.763746
     1534.200000       0.756902
     1534.300000       0.749289
     1534.400000       0.741012
     1534.500000       0.732304
     1534.600000       0.723181
     1534.700000       0.713761
     1534.800000       0.704234
     1534.900000       0.694698
     1535.000000       0.685374
     1535.100000       0.676311
     1535.200000       0.667523
     1535.300000       0.659077
     1535.400000       0.650907
     1535.500000       0.643053
     1535.600000       0.635444
     1535.700000       0.627976
     1535.800000       0.620696
     1535.900000       0.613561
     1536.000000       0.606535
     1536.100000       0.599628
     1536.200000       0.592811
     1536.300000       0.585953
     1536.400000       0.579106
     1536.500000       0.572219
     1536.600000       0.565290
     1536.700000       0.558321
     1536.800000       0.551156
     1536.900000       0.543848
     1537.000000       0.536351
     1537.100000       0.528651
     1537.200000       0.520781
     1537.300000       0.512551
     1537.400000       0.504017
     1537.500000       0.495152
     1537.600000       0.485980
     1537.700000       0.476637
     1537.800000       0.466961
     1537.900000       0.457076
     1538.000000       0.447026
     1538.100000       0.436831
     1538.200000       0.426649
     1538.300000       0.416319
     1538.400000       0.405942
     1538.500000       0.395587
     1538.600000       0.385264
     1538.700000       0.375133
     1538.800000       0.365064
     1538.900000       0.355121
     1539.000000       0.345395
     1539.100000       0.335894
     1539.200000       0.326761
     1539.300000       0.317912
     1539.400000       0.309339
     1539.500000       0.301099
     1539.600000       0.293146
     1539.700000       0.285547
     1539.800000       0.278222
     1539.900000       0.271113
     1540.000000       0.264280
     1540.100000       0.257681
     1540.200000       0.251359
     1540.300000       0.245272
     1540.400000       0.239347
     1540.500000       0.233636
     1540.600000       0.228107
     1540.700000       0.222781
     1540.800000       0.217644
     1540.900000       0.212615
     1541.000000       0.207737
     1541.100000       0.202991
     1541.200000       0.198363
     1541.300000       0.193857
     1541.400000       0.189480
     1541.500000       0.185152
     1541.600000       0.180910
     1541.700000       0.176736
     1541.800000       0.172628
     1541.900000       0.168605
     1542.000000       0.164599
     1542.100000       0.160650
     1542.200000       0.156757
     1542.300000       0.152922
     1542.400000       0.149179
     1542.500000       0.145464
     1542.600000       0.141807
     1542.700000       0.138212
     1542.800000       0.134677
     1542.900000       0.131235
     1543.000000       0.127832
     1543.100000       0.124486
     1543.200000       0.121205
     1543.300000       0.117987
     1543.400000       0.114830
     1543.500000       0.111762
     1543.600000       0.108743
     1543.700000       0.105776
     1543.800000       0.102876
     1543.900000       0.100033
     1544.000000       0.097275
     1544.100000       0.094572
     1544.200000       0.091915
     1544.300000       0.089325
     1544.400000       0.086791
     1544.500000       0.084333
     1544.600000       0.081934
     1544.700000       0.079579
     1544.800000       0.077285
     1544.900000       0.075049
     1545.000000       0.072867
     1545.100000       0.070751
     1545.200000       0.068697
     1545.300000       0.066679
     1545.400000       0.064717
     1545.500000       0.062805
     1545.600000       0.060950
     1545.700000       0.059154
     1545.800000       0.057390
     1545.900000       0.055678
     1546.000000       0.054010
     1546.100000       0.052392
     1546.200000       0.050830
     1546.300000       0.049298
     1546.400000       0.047811
     1546.500000       0.046366
     1546.600000       0.044963
     1546.700000       0.043614
     1546.800000       0.042293
     1546.900000       0.041011
     1547.000000       0.039768
     1547.100000       0.038563
     1547.200000       0.037407
     1547.300000       0.036278
     1547.400000       0.035183
     1547.500000       0.034125
     1547.600000       0.033100
     1547.700000       0.032118
     1547.800000       0.031164
     1547.900000       0.030239
     1548.000000       0.029347
     1548.100000       0.028486
     1548.200000       0.027654
     1548.300000       0.026858
     1548.400000       0.026087
     1548.500000       0.025340
     1548.600000       0.024620
     1548.700000       0.023926
     1548.800000       0.023261
     1548.900000       0.022620
     1549.000000       0.021998
     1549.100000       0.021400
     1549.200000       0.020823
     1549.300000       0.020271
     1549.400000       0.019740
     1549.500000       0.019225
     1549.600000       0.018730
     1549.700000       0.018253
     1549.800000       0.017797
     1549.900000       0.017359
     1550.000000       0.016933
     1550.100000       0.016524
     1550.200000       0.016130
     1550.300000       0.015752
     1550.400000       0.015389
     1550.500000       0.015036
     1550.600000       0.014696
     1550.700000       0.014367
     1550.800000       0.014051
     1550.900000       0.013747
     1551.000000       0.013449
     1551.100000       0.013161
     1551.200000       0.012882
     1551.300000       0.012611
     1551.400000       0.012348
     1551.500000       0.012096
     1551.600000       0.011848
     1551.700000       0.011609
     1551.800000       0.011377
     1551.900000       0.011153
     1552.000000       0.010938
     1552.100000       0.010728
     1552.200000       0.010526
     1552.300000       0.010330
     1552.400000       0.010141
     1552.500000       0.009961
     1552.600000       0.009787
     1552.700000       0.009618
     1552.800000       0.009456
     1552.900000       0.009300
     1553.000000       0.009152
     1553.100000       0.009009
     1553.200000       0.008871
     1553.300000       0.008739
     1553.400000       0.008613
     1553.500000       0.008494
     1553.600000       0.008380
     1553.700000       0.008270
     1553.800000       0.008166
     1553.900000       0.008067
     1554.000000       0.007974
     1554.100000       0.007886
     1554.200000       0.007802
     1554.300000       0.007722
     1554.400000       0.007648
     1554.500000       0.007578
     1554.600000       0.007513
     1554.700000       0.007451
     1554.800000       0.007394
     1554.900000       0.007341
     1555.000000       0.007292
     1555.100000       0.007247
     1555.200000       0.007206
     1555.300000       0.007168
     1555.400000       0.007133
     1555.500000       0.007102
     1555.600000       0.007074
     1555.700000       0.007049
     1555.800000       0.007027
     1555.900000       0.007008
     1556.000000       0.006991
     1556.100000       0.006977
     1556.200000       0.006966
     1556.300000       0.006957
     1556.400000       0.006950
     1556.500000       0.006945
     1556.600000       0.006942
     1556.700000       0.006941
     1556.800000       0.006942
     1556.900000       0.006943
     1557.000000       0.006945
     1557.100000       0.006947
     1557.200000       0.006949
     1557.300000       0.006950
     1557.400000       0.006950
     1557.500000       0.006949
     1557.600000       0.006947
     1557.700000       0.006942
     1557.800000       0.006935
     1557.900000       0.006925
     1558.000000       0.006912
     1558.100000       0.006895
     1558.200000       0.006874
     1558.300000       0.006849
     1558.400000       0.006819
     1558.500000       0.006784
     1558.600000       0.006744
     1558.700000       0.006698
     1558.800000       0.006646
     1558.900000       0.006587
     1559.000000       0.006522
     1559.100000       0.006450
     1559.200000       0.006370
     1559.300000       0.006284
     1559.400000       0.006190
     1559.500000       0.006087
     1559.600000       0.005976
     1559.700000       0.005857
     1559.800000       0.005729
     1559.900000       0.005593
     1560.000000       0.005446
     1560.100000       0.005290
     1560.200000       0.005125
     1560.300000       0.004950
     1560.400000       0.004768
     1560.500000       0.004580
     1560.600000       0.004384
     1560.700000       0.004183
     1560.800000       0.003977
     1560.900000       0.003769
     1561.000000       0.003560
     1561.100000       0.003348
     1561.200000       0.003135
     1561.300000       0.002923
     1561.400000       0.002712
     1561.500000       0.002504
     1561.600000       0.002299
     1561.700000       0.002097
     1561.800000       0.001899
     1561.900000       0.001707
     1562.000000       0.001523
     1562.100000       0.001344
     1562.200000       0.001173
     1562.300000       0.001011
     1562.400000       0.000858
     1562.500000       0.000716
     1562.600000       0.000584
     1562.700000       0.000462
     1562.800000       0.000350
     1562.900000       0.000248
     1563.000000       0.000155
     1563.100000       0.000072
     1563.200000       0.000000
     1563.300000       0.000000
     1563.400000       0.000000
     1563.500000       0.000000
     1563.600000       0.000000
     1563.700000       0.000000
     1563.800000       0.000000
     1563.900000       0.000000
     1564.000000       0.000000
     1564.100000       0.000000
     1564.200000       0.000000
     1564.300000       0.000000
     1564.400000       0.000000
     1564.500000       0.000000
     1564.600000       0.000000
     1564.700000       0.000000
     1564.800000       0.000000
     1564.900000       0.000000
     1565.000000       0.000000
     1565.100000       0.000000
     1565.200000       0.000000
     1565.300000       0.000000
     1565.400000       0.000000
     1565.500000       0.000000
     1565.600000       0.000008
     1565.700000       0.000052
     1565.800000       0.000099
     1565.900000       0.000146
     1566.000000       0.000194
     1566.100000       0.000242
     1566.200000       0.000291
     1566.300000       0.000339
     1566.400000       0.000387
     1566.500000       0.000434
     1566.600000       0.000480
     1566.700000       0.000525
     1566.800000       0.000568
     1566.900000       0.000609
     1567.000000       0.000648
     1567.100000       0.000685
     1567.200000       0.000719
     1567.300000       0.000750
     1567.400000       0.000777
     1567.500000       0.000801
     1567.600000       0.000821
     1567.700000       0.000838
     1567.800000       0.000852
     1567.900000       0.000863
     1568.000000       0.000870
     1568.100000       0.000875
     1568.200000       0.000877
     1568.300000       0.000876
     1568.400000       0.000873
     1568.500000       0.000867
     1568.600000       0.000859
     1568.700000       0.000849
     1568.800000       0.000836
     1568.900000       0.000822
     1569.000000       0.000806
     1569.100000       0.000788
     1569.200000       0.000769
     1569.300000       0.000748
     1569.400000       0.000727
     1569.500000       0.000703
     1569.600000       0.000679
     1569.700000       0.000654
     1569.800000       0.000628
     1569.900000       0.000602
     1570.000000       0.000575
     1570.100000       0.000548
     1570.200000       0.000520
     1570.300000       0.000493
     1570.400000       0.000465
     1570.500000       0.000438
     1570.600000       0.000411
     1570.700000       0.000384
     1570.800000       0.000358
     1570.900000       0.000332
     1571.000000       0.000308
     1571.100000       0.000284
     1571.200000       0.000261
     1571.300000       0.000240
     1571.400000       0.000220
     1571.500000       0.000201
     1571.600000       0.000185
     1571.700000       0.000169
     1571.800000       0.000156
     1571.900000       0.000144
     1572.000000       0.000135
     1572.100000       0.000128
     1572.200000       0.000124
     1572.300000       0.000122
     1572.400000       0.000122
     1572.500000       0.000126
     1572.600000       0.000132
     1572.700000       0.000141
     1572.800000       0.000154
     1572.900000       0.000170
     1573.000000       0.000189
     1573.100000       0.000212
     1573.200000       0.000239
     1573.300000       0.000270
     1573.400000       0.000305
     1573.500000       0.000344
     1573.600000       0.000387
     1573.700000       0.000435
     1573.800000       0.000487
     1573.900000       0.000545
     1574.000000       0.000607
     1574.100000       0.000674
     1574.200000       0.000746
     1574.300000       0.000824
     1574.400000       0.000907
     1574.500000       0.000993
     1574.600000       0.001084
     1574.700000       0.001176
     1574.800000       0.001273
     1574.900000       0.001372
     1575.000000       0.001472
     1575.100000       0.001574
     1575.200000       0.001676
     1575.300000       0.001779
     1575.400000       0.001882
     1575.500000       0.001984
     1575.600000       0.002085
     1575.700000       0.002183
     1575.800000       0.002279
     1575.900000       0.002374
     1576.000000       0.002464
     1576.100000       0.002551
     1576.200000       0.002634
     1576.300000       0.002711
     1576.400000       0.002784
     1576.500000       0.002851
     1576.600000       0.002911
     1576.700000       0.002965
     1576.800000       0.003011
     1576.900000       0.003049
     1577.000000       0.003080
     1577.100000       0.003102
     1577.200000       0.003116
     1577.300000       0.003122
     1577.400000       0.003120
     1577.500000       0.003112
     1577.600000       0.003096
     1577.700000       0.003073
     1577.800000       0.003044
     1577.900000       0.003009
     1578.000000       0.002968
     1578.100000       0.002921
     1578.200000       0.002869
     1578.300000       0.002811
     1578.400000       0.002750
     1578.500000       0.002683
     1578.600000       0.002612
     1578.700000       0.002536
     1578.800000       0.002458
     1578.900000       0.002375
     1579.000000       0.002291
     1579.100000       0.002202
     1579.200000       0.002111
     1579.300000       0.002018
     1579.400000       0.001922
     1579.500000       0.001826
     1579.600000       0.001727
     1579.700000       0.001626
     1579.800000       0.001525
     1579.900000       0.001422
     1580.000000       0.001320
     1580.100000       0.001217
     1580.200000       0.001113
     1580.300000       0.001010
     1580.400000       0.000906
     1580.500000       0.000805
     1580.600000       0.000703
     1580.700000       0.000602
     1580.800000       0.000503
     1580.900000       0.000404
     1581.000000       0.000309
     1581.100000       0.000215
     1581.200000       0.000122
     1581.300000       0.000032
     1581.400000       0.000000
     1581.500000       0.000000
     1581.600000       0.000000
     1581.700000       0.000000
     1581.800000       0.000000
     1581.900000       0.000000
     1582.000000       0.000000
     1582.100000       0.000000
     1582.200000       0.000000
     1582.300000       0.000000
     1582.400000       0.000000
     1582.500000       0.000000
     1582.600000       0.000000
     1582.700000       0.000000
     1582.800000       0.000000
     1582.900000       0.000000
     1583.000000       0.000000
     1583.100000       0.000000
     1583.200000       0.000000
     1583.300000       0.000000
     1583.400000       0.000000
     1583.500000       0.000000
     1583.600000       0.000000
     1583.700000       0.000000
     1583.800000       0.000000
     1583.900000       0.000000
     1584.000000       0.000000
     1584.100000       0.000000
     1584.200000       0.000000
     1584.300000       0.000000
     1584.400000       0.000000
     1584.500000       0.000000
     1584.600000       0.000000
     1584.700000       0.000000
     1584.800000       0.000000
     1584.900000       0.000000
     1585.000000       0.000000
     1585.100000       0.000000
     1585.200000       0.000000
     1585.300000       0.000000
     1585.400000       0.000000
     1585.500000       0.000000
     1585.600000       0.000000
     1585.700000       0.000000
     1585.800000       0.000000
     1585.900000       0.000000
     1586.000000       0.000000
     1586.100000       0.000000
     1586.200000       0.000000
     1586.300000       0.000000
     1586.400000       0.000000
     1586.500000       0.000000
     1586.600000       0.000000
     1586.700000       0.000000
     1586.800000       0.000000
     1586.900000       0.000000
     1587.000000       0.000000
     1587.100000       0.000000
     1587.200000       0.000000
     1587.300000       0.000000
     1587.400000       0.000000
     1587.500000       0.000000
     1587.600000       0.000000
     1587.700000       0.000000
     1587.800000       0.000000
     1587.900000       0.000000
     1588.000000       0.000000
     1588.100000       0.000000
     1588.200000       0.000000
     1588.300000       0.000000
     1588.400000       0.000000
     1588.500000       0.000000
     1588.600000       0.000000
     1588.700000       0.000000
     1588.800000       0.000000
     1588.900000       0.000000
     1589.000000       0.000000
     1589.100000       0.000000
     1589.200000       0.000000
     1589.300000       0.000000
     1589.400000       0.000000
     1589.500000       0.000000
     1589.600000       0.000000
     1589.700000       0.000000
     1589.800000       0.000000
     1589.900000       0.000000
     1590.000000       0.000000
     1590.100000       0.000000
     1590.200000       0.000000
     1590.300000       0.000000
     1590.400000       0.000000
     1590.500000       0.000000
     1590.600000       0.000000
     1590.700000       0.000000
     1590.800000       0.000000
     1590.900000       0.000000
     1591.000000       0.000000
     1591.100000       0.000000
     1591.200000       0.000000
     1591.300000       0.000000
     1591.400000       0.000000
     1591.500000       0.000000
     1591.600000       0.000000
     1591.700000       0.000000
     1591.800000       0.000000
     1591.900000       0.000000
     1592.000000       0.000000
     1592.100000       0.000000
     1592.200000       0.000000
     1592.300000       0.000000
     1592.400000       0.000000
     1592.500000       0.000000
     1592.600000       0.000000
     1592.700000       0.000000
     1592.800000       0.000000
     1592.900000       0.000000
     1593.000000       0.000000
     1593.100000       0.000000
     1593.200000       0.000000
     1593.300000       0.000000
     1593.400000       0.000000
     1593.500000       0.000000
     1593.600000       0.000000
     1593.700000       0.000000
     1593.800000       0.000000
     1593.900000       0.000000
     1594.000000       0.000000
     1594.100000       0.000000
     1594.200000       0.000003
     1594.300000       0.000038
     1594.400000       0.000073
     1594.500000       0.000108
     1594.600000       0.000143
     1594.700000       0.000177
     1594.800000       0.000210
     1594.900000       0.000244
     1595.000000       0.000277
     1595.100000       0.000309
     1595.200000       0.000341
     1595.300000       0.000373
     1595.400000       0.000404
     1595.500000       0.000434
     1595.600000       0.000465
     1595.700000       0.000494
     1595.800000       0.000523
     1595.900000       0.000552
     1596.000000       0.000580
     1596.100000       0.000607
     1596.200000       0.000634
     1596.300000       0.000660
     1596.400000       0.000686
     1596.500000       0.000711
     1596.600000       0.000735
     1596.700000       0.000760
     1596.800000       0.000783
     1596.900000       0.000806
     1597.000000       0.000828
     1597.100000       0.000850
     1597.200000       0.000872
     1597.300000       0.000893
     1597.400000       0.000913
     1597.500000       0.000933
     1597.600000       0.000953
     1597.700000       0.000972
     1597.800000       0.000990
     1597.900000       0.001009
     1598.000000       0.001026
     1598.100000       0.001043
     1598.200000       0.001060
     1598.300000       0.001076
     1598.400000       0.001092
     1598.500000       0.001108
     1598.600000       0.001123
     1598.700000       0.001137
     1598.800000       0.001151
     1598.900000       0.001165
     1599.000000       0.001178
     1599.100000       0.001191
     1599.200000       0.001204
     1599.300000       0.001216
     1599.400000       0.001228
     1599.500000       0.001239
     1599.600000       0.001250
     1599.700000       0.001261
     1599.800000       0.001271
     1599.900000       0.001281
     1600.000000       0.001291
     1600.100000       0.001300
     1600.200000       0.001309
     1600.300000       0.001317
     1600.400000       0.001326
     1600.500000       0.001334
     1600.600000       0.001341
     1600.700000       0.001348
     1600.800000       0.001355
     1600.900000       0.001361
     1601.000000       0.001368
     1601.100000       0.001373
     1601.200000       0.001379
     1601.300000       0.001384
     1601.400000       0.001389
     1601.500000       0.001393
     1601.600000       0.001398
     1601.700000       0.001402
     1601.800000       0.001405
     1601.900000       0.001409
     1602.000000       0.001412
     1602.100000       0.001414
     1602.200000       0.001417
     1602.300000       0.001419
     1602.400000       0.001421
     1602.500000       0.001423
     1602.600000       0.001424
     1602.700000       0.001425
     1602.800000       0.001426
     1602.900000       0.001426
     1603.000000       0.001427
     1603.100000       0.001427
     1603.200000       0.001426
     1603.300000       0.001426
     1603.400000       0.001425
     1603.500000       0.001424
     1603.600000       0.001423
     1603.700000       0.001422
     1603.800000       0.001420
     1603.900000       0.001418
     1604.000000       0.001416
     1604.100000       0.001414
     1604.200000       0.001411
     1604.300000       0.001409
     1604.400000       0.001406
     1604.500000       0.001402
     1604.600000       0.001399
     1604.700000       0.001396
     1604.800000       0.001392
     1604.900000       0.001388
     1605.000000       0.001384
     1605.100000       0.001379
     1605.200000       0.001375
     1605.300000       0.001370
     1605.400000       0.001365
     1605.500000       0.001360
     1605.600000       0.001355
     1605.700000       0.001350
     1605.800000       0.001344
     1605.900000       0.001339
     1606.000000       0.001333
     1606.100000       0.001327
     1606.200000       0.001321
     1606.300000       0.001314
     1606.400000       0.001308
     1606.500000       0.001301
     1606.600000       0.001294
     1606.700000       0.001287
     1606.800000       0.001280
     1606.900000       0.001273
     1607.000000       0.001266
     1607.100000       0.001259
     1607.200000       0.001251
     1607.300000       0.001243
     1607.400000       0.001235
     1607.500000       0.001228
     1607.600000       0.001220
     1607.700000       0.001211
     1607.800000       0.001203
     1607.900000       0.001195
     1608.000000       0.001186
     1608.100000       0.001178
     1608.200000       0.001169
     1608.300000       0.001160
     1608.400000       0.001152
     1608.500000       0.001143
     1608.600000       0.001134
     1608.700000       0.001125
     1608.800000       0.001116
     1608.900000       0.001106
     1609.000000       0.001097
     1609.100000       0.001088
     1609.200000       0.001078
     1609.300000       0.001069
     1609.400000       0.001059
     1609.500000       0.001050
     1609.600000       0.001040
     1609.700000       0.001030
     1609.800000       0.001021
     1609.900000       0.001011
     1610.000000       0.001001
     1610.100000       0.000991
