3, INSAT-3DR Imager  Medium Wave Infared (3.8-4.0mu)
Number of data points:
59
Wavenumber (cm-1)   Filter response
     2463.054200       0.000000
     2466.091200       0.015000
     2469.135800       0.030000
     2472.187900       0.045000
     2475.247500       0.054400
     2478.314700       0.070500
     2481.389600       0.096000
     2484.472000       0.102300
     2487.562200       0.140100
     2490.660000       0.223900
     2493.765600       0.471400
     2496.878900       0.639700
     2500.000000       0.647300
     2503.128900       0.751700
     2506.265700       0.823200
     2509.410300       0.859000
     2512.562800       0.870000
     2515.723300       0.885900
     2518.891700       0.873300
     2522.068100       0.894500
     2525.252500       0.909200
     2528.445000       0.941300
     2531.645600       0.950900
     2534.854200       0.975400
     2538.071100       0.992300
     2541.296100       1.000000
     2544.529300       0.983700
     2547.770700       0.991800
     2551.020400       0.998000
     2554.278400       0.993900
     2557.544800       0.989600
     2560.819500       0.979000
     2564.102600       0.936500
     2567.394100       0.922600
     2570.694100       0.920900
     2574.002600       0.915000
     2577.319600       0.937600
     2580.645200       0.894400
     2583.979300       0.883000
     2587.322100       0.880800
     2590.673600       0.876400
     2594.033700       0.821100
     2597.402600       0.870500
     2600.780200       0.815000
     2604.166700       0.840100
     2607.561900       0.820100
     2610.966100       0.782200
     2614.379100       0.761600
     2617.801000       0.753200
     2621.232000       0.712000
     2624.671900       0.610500
     2628.120900       0.420500
     2631.578900       0.254100
     2635.046100       0.144000
     2638.522400       0.080000
     2642.007900       0.050000
     2645.502600       0.030000
     2649.006600       0.010000
     2652.519900       0.000000
