03  , Filter noaa_09_avhrr_03.flt
Number of data points:
60
Wavenumber (cm-1)   Filter response
     2469.135000       0.000000
     2476.903500       0.002188
     2484.672000       0.004234
     2492.440500       0.006691
     2500.209000       0.012694
     2507.977500       0.026329
     2515.746000       0.053008
     2523.514500       0.102264
     2531.283000       0.198798
     2539.051500       0.359385
     2546.820000       0.547006
     2554.588500       0.714005
     2562.357000       0.840713
     2570.125500       0.919533
     2577.894000       0.958756
     2585.662500       0.974150
     2593.431000       0.978771
     2601.199500       0.983537
     2608.968000       0.991133
     2616.736500       0.995812
     2624.505000       0.993588
     2632.273500       0.984172
     2640.042000       0.969067
     2647.810500       0.954250
     2655.579000       0.946105
     2663.347500       0.948358
     2671.116000       0.963059
     2678.884500       0.983739
     2686.653000       0.996765
     2694.421500       0.996707
     2702.190000       0.993415
     2709.958500       0.995581
     2717.727000       0.997661
     2725.495500       0.990498
     2733.264000       0.976981
     2741.032500       0.969991
     2748.801000       0.976663
     2756.569500       0.989227
     2764.338000       0.998267
     2772.106500       1.000000
     2779.875000       0.993733
     2787.643500       0.980360
     2795.412000       0.963666
     2803.180500       0.945614
     2810.949000       0.910262
     2818.717500       0.833030
     2826.486000       0.704994
     2834.254500       0.549115
     2842.023000       0.391618
     2849.791500       0.252618
     2857.560000       0.148049
     2865.328500       0.087141
     2873.097000       0.056390
     2880.865500       0.037697
     2888.634000       0.021490
     2896.402500       0.009073
     2904.171000       0.002174
     2911.939500       0.000000
     2919.708000       0.000000
     2927.476500       0.000000
