3,   channel 3 SRF from file SRF_SSH-1_Delivery_220520/SRF_DMSP-F3_SSH_Chan03.asc received June 2022 from SPASCIA
Number of data points:
541
Wavenumber (cm-1)   Filter response
      347.100000       0.002700
      347.200000       0.002700
      347.300000       0.002800
      347.400000       0.002800
      347.500000       0.002900
      347.600000       0.002900
      347.700000       0.003100
      347.800000       0.003200
      347.900000       0.003300
      348.000000       0.003400
      348.100000       0.003500
      348.200000       0.003500
      348.300000       0.003600
      348.400000       0.003600
      348.500000       0.003700
      348.600000       0.003800
      348.700000       0.003800
      348.800000       0.003900
      348.900000       0.003900
      349.000000       0.004000
      349.100000       0.004000
      349.200000       0.004100
      349.300000       0.004200
      349.400000       0.004300
      349.500000       0.004500
      349.600000       0.004600
      349.700000       0.004700
      349.800000       0.004900
      349.900000       0.005000
      350.000000       0.005200
      350.100000       0.005400
      350.200000       0.005500
      350.300000       0.005600
      350.400000       0.005700
      350.500000       0.005800
      350.600000       0.005900
      350.700000       0.006100
      350.800000       0.006200
      350.900000       0.006400
      351.000000       0.006500
      351.100000       0.006700
      351.200000       0.006900
      351.300000       0.007000
      351.400000       0.007200
      351.500000       0.007300
      351.600000       0.007500
      351.700000       0.007700
      351.800000       0.007900
      351.900000       0.008200
      352.000000       0.008400
      352.100000       0.008600
      352.200000       0.008800
      352.300000       0.009000
      352.400000       0.009200
      352.500000       0.009400
      352.600000       0.009700
      352.700000       0.009900
      352.800000       0.010100
      352.900000       0.010300
      353.000000       0.010500
      353.100000       0.010700
      353.200000       0.011000
      353.300000       0.011300
      353.400000       0.011500
      353.500000       0.011800
      353.600000       0.012100
      353.700000       0.012400
      353.800000       0.012800
      353.900000       0.013200
      354.000000       0.013600
      354.100000       0.013900
      354.200000       0.014300
      354.300000       0.014600
      354.400000       0.014900
      354.500000       0.015200
      354.600000       0.015500
      354.700000       0.015900
      354.800000       0.016300
      354.900000       0.016700
      355.000000       0.017100
      355.100000       0.017400
      355.200000       0.017900
      355.300000       0.018400
      355.400000       0.018900
      355.500000       0.019400
      355.600000       0.019800
      355.700000       0.020400
      355.800000       0.020900
      355.900000       0.021400
      356.000000       0.022000
      356.100000       0.022500
      356.200000       0.023100
      356.300000       0.023600
      356.400000       0.024100
      356.500000       0.024700
      356.600000       0.025200
      356.700000       0.026100
      356.800000       0.026900
      356.900000       0.027800
      357.000000       0.028600
      357.100000       0.029500
      357.200000       0.030000
      357.300000       0.030600
      357.400000       0.031100
      357.500000       0.031600
      357.600000       0.032200
      357.700000       0.033200
      357.800000       0.034300
      357.900000       0.035400
      358.000000       0.036500
      358.100000       0.037500
      358.200000       0.038600
      358.300000       0.039700
      358.400000       0.040800
      358.500000       0.041800
      358.600000       0.042900
      358.700000       0.043400
      358.800000       0.044000
      358.900000       0.044500
      359.000000       0.045000
      359.100000       0.045600
      359.200000       0.048300
      359.300000       0.050900
      359.400000       0.053600
      359.500000       0.056300
      359.600000       0.059000
      359.700000       0.059000
      359.800000       0.059000
      359.900000       0.059000
      360.000000       0.059000
      360.100000       0.059000
      360.200000       0.059500
      360.300000       0.060100
      360.400000       0.060600
      360.500000       0.061100
      360.600000       0.061700
      360.700000       0.062700
      360.800000       0.063800
      360.900000       0.064900
      361.000000       0.066000
      361.100000       0.067000
      361.200000       0.068100
      361.300000       0.069200
      361.400000       0.070200
      361.500000       0.071300
      361.600000       0.072400
      361.700000       0.075100
      361.800000       0.077700
      361.900000       0.080400
      362.000000       0.083100
      362.100000       0.085800
      362.200000       0.089000
      362.300000       0.092200
      362.400000       0.095400
      362.500000       0.098700
      362.600000       0.101900
      362.700000       0.105100
      362.800000       0.108300
      362.900000       0.111500
      363.000000       0.114700
      363.100000       0.118000
      363.200000       0.122300
      363.300000       0.126500
      363.400000       0.130800
      363.500000       0.135100
      363.600000       0.139400
      363.700000       0.143700
      363.800000       0.148000
      363.900000       0.152300
      364.000000       0.156600
      364.100000       0.160900
      364.200000       0.164600
      364.300000       0.168400
      364.400000       0.172100
      364.500000       0.175900
      364.600000       0.179600
      364.700000       0.185500
      364.800000       0.191400
      364.900000       0.197300
      365.000000       0.203200
      365.100000       0.209100
      365.200000       0.216600
      365.300000       0.224100
      365.400000       0.231600
      365.500000       0.239100
      365.600000       0.246600
      365.700000       0.254700
      365.800000       0.262700
      365.900000       0.270800
      366.000000       0.278800
      366.100000       0.286900
      366.200000       0.295400
      366.300000       0.304000
      366.400000       0.312600
      366.500000       0.321200
      366.600000       0.329800
      366.700000       0.338300
      366.800000       0.346900
      366.900000       0.355500
      367.000000       0.364100
      367.100000       0.372700
      367.200000       0.381200
      367.300000       0.389800
      367.400000       0.398400
      367.500000       0.407000
      367.600000       0.415500
      367.700000       0.426800
      367.800000       0.438100
      367.900000       0.449300
      368.000000       0.460600
      368.100000       0.471800
      368.200000       0.483600
      368.300000       0.495400
      368.400000       0.507200
      368.500000       0.519000
      368.600000       0.530800
      368.700000       0.542600
      368.800000       0.554400
      368.900000       0.566200
      369.000000       0.578000
      369.100000       0.589800
      369.200000       0.600000
      369.300000       0.610200
      369.400000       0.620400
      369.500000       0.630600
      369.600000       0.640800
      369.700000       0.657400
      369.800000       0.674000
      369.900000       0.690600
      370.000000       0.707200
      370.100000       0.723900
      370.200000       0.733500
      370.300000       0.743200
      370.400000       0.752800
      370.500000       0.762500
      370.600000       0.772100
      370.700000       0.780700
      370.800000       0.789300
      370.900000       0.797900
      371.000000       0.806400
      371.100000       0.815000
      371.200000       0.822500
      371.300000       0.830000
      371.400000       0.837500
      371.500000       0.845000
      371.600000       0.852500
      371.700000       0.861700
      371.800000       0.870800
      371.900000       0.879900
      372.000000       0.889000
      372.100000       0.898100
      372.200000       0.905600
      372.300000       0.913100
      372.400000       0.920600
      372.500000       0.928200
      372.600000       0.935700
      372.700000       0.942600
      372.800000       0.949600
      372.900000       0.956600
      373.000000       0.963500
      373.100000       0.970500
      373.200000       0.974300
      373.300000       0.978000
      373.400000       0.981800
      373.500000       0.985500
      373.600000       0.989300
      373.700000       0.991400
      373.800000       0.993600
      373.900000       0.995700
      374.000000       0.997900
      374.100000       1.000000
      374.200000       0.999500
      374.300000       0.998900
      374.400000       0.998400
      374.500000       0.997900
      374.600000       0.997300
      374.700000       0.994600
      374.800000       0.992000
      374.900000       0.989300
      375.000000       0.986600
      375.100000       0.983900
      375.200000       0.980200
      375.300000       0.976400
      375.400000       0.972700
      375.500000       0.968900
      375.600000       0.965100
      375.700000       0.959800
      375.800000       0.954400
      375.900000       0.949100
      376.000000       0.943700
      376.100000       0.938300
      376.200000       0.928700
      376.300000       0.919000
      376.400000       0.909400
      376.500000       0.899700
      376.600000       0.890100
      376.700000       0.878300
      376.800000       0.866500
      376.900000       0.854700
      377.000000       0.842900
      377.100000       0.831100
      377.200000       0.818800
      377.300000       0.806400
      377.400000       0.794100
      377.500000       0.781800
      377.600000       0.769400
      377.700000       0.755500
      377.800000       0.741600
      377.900000       0.727600
      378.000000       0.713700
      378.100000       0.699700
      378.200000       0.685300
      378.300000       0.670800
      378.400000       0.656300
      378.500000       0.641800
      378.600000       0.627300
      378.700000       0.613400
      378.800000       0.599500
      378.900000       0.585500
      379.000000       0.571600
      379.100000       0.557600
      379.200000       0.545300
      379.300000       0.533000
      379.400000       0.520600
      379.500000       0.508300
      379.600000       0.496000
      379.700000       0.481500
      379.800000       0.467000
      379.900000       0.452500
      380.000000       0.438100
      380.100000       0.423600
      380.200000       0.412900
      380.300000       0.402100
      380.400000       0.391400
      380.500000       0.380700
      380.600000       0.370000
      380.700000       0.360300
      380.800000       0.350700
      380.900000       0.341000
      381.000000       0.331400
      381.100000       0.321700
      381.200000       0.312600
      381.300000       0.303500
      381.400000       0.294400
      381.500000       0.285300
      381.600000       0.276100
      381.700000       0.267600
      381.800000       0.259000
      381.900000       0.250400
      382.000000       0.241800
      382.100000       0.233200
      382.200000       0.225700
      382.300000       0.218200
      382.400000       0.210700
      382.500000       0.203200
      382.600000       0.195700
      382.700000       0.191400
      382.800000       0.187100
      382.900000       0.182800
      383.000000       0.178600
      383.100000       0.174300
      383.200000       0.169400
      383.300000       0.164600
      383.400000       0.159800
      383.500000       0.155000
      383.600000       0.150100
      383.700000       0.146900
      383.800000       0.143700
      383.900000       0.140500
      384.000000       0.137300
      384.100000       0.134000
      384.200000       0.130800
      384.300000       0.127600
      384.400000       0.124400
      384.500000       0.121200
      384.600000       0.118000
      384.700000       0.114700
      384.800000       0.111500
      384.900000       0.108300
      385.000000       0.105100
      385.100000       0.101900
      385.200000       0.099700
      385.300000       0.097600
      385.400000       0.095400
      385.500000       0.093300
      385.600000       0.091200
      385.700000       0.089000
      385.800000       0.086900
      385.900000       0.084700
      386.000000       0.082600
      386.100000       0.080400
      386.200000       0.078300
      386.300000       0.076100
      386.400000       0.074000
      386.500000       0.071800
      386.600000       0.069700
      386.700000       0.067600
      386.800000       0.065400
      386.900000       0.063300
      387.000000       0.061100
      387.100000       0.059000
      387.200000       0.057400
      387.300000       0.055800
      387.400000       0.054200
      387.500000       0.052500
      387.600000       0.050900
      387.700000       0.049900
      387.800000       0.048800
      387.900000       0.047700
      388.000000       0.046600
      388.100000       0.045600
      388.200000       0.044000
      388.300000       0.042400
      388.400000       0.040800
      388.500000       0.039100
      388.600000       0.037500
      388.700000       0.037000
      388.800000       0.036500
      388.900000       0.035900
      389.000000       0.035400
      389.100000       0.034900
      389.200000       0.034300
      389.300000       0.033800
      389.400000       0.033200
      389.500000       0.032700
      389.600000       0.032200
      389.700000       0.031600
      389.800000       0.031100
      389.900000       0.030600
      390.000000       0.030000
      390.100000       0.029500
      390.200000       0.028700
      390.300000       0.027900
      390.400000       0.027100
      390.500000       0.026300
      390.600000       0.025500
      390.700000       0.025000
      390.800000       0.024500
      390.900000       0.024000
      391.000000       0.023500
      391.100000       0.023100
      391.200000       0.022600
      391.300000       0.022100
      391.400000       0.021600
      391.500000       0.021100
      391.600000       0.020600
      391.700000       0.020200
      391.800000       0.019800
      391.900000       0.019400
      392.000000       0.018900
      392.100000       0.018500
      392.200000       0.018100
      392.300000       0.017700
      392.400000       0.017400
      392.500000       0.017000
      392.600000       0.016600
      392.700000       0.016300
      392.800000       0.016000
      392.900000       0.015700
      393.000000       0.015300
      393.100000       0.015000
      393.200000       0.014700
      393.300000       0.014400
      393.400000       0.014000
      393.500000       0.013700
      393.600000       0.013400
      393.700000       0.013100
      393.800000       0.012900
      393.900000       0.012600
      394.000000       0.012300
      394.100000       0.012100
      394.200000       0.011800
      394.300000       0.011500
      394.400000       0.011300
      394.500000       0.011000
      394.600000       0.010700
      394.700000       0.010500
      394.800000       0.010300
      394.900000       0.010100
      395.000000       0.009900
      395.100000       0.009700
      395.200000       0.009400
      395.300000       0.009200
      395.400000       0.009000
      395.500000       0.008800
      395.600000       0.008600
      395.700000       0.008200
      395.800000       0.007700
      395.900000       0.007300
      396.000000       0.006900
      396.100000       0.006400
      396.200000       0.006500
      396.300000       0.006600
      396.400000       0.006800
      396.500000       0.006900
      396.600000       0.007000
      396.700000       0.006800
      396.800000       0.006600
      396.900000       0.006500
      397.000000       0.006300
      397.100000       0.006200
      397.200000       0.006100
      397.300000       0.006000
      397.400000       0.005800
      397.500000       0.005700
      397.600000       0.005600
      397.700000       0.005500
      397.800000       0.005400
      397.900000       0.005300
      398.000000       0.005200
      398.100000       0.005100
      398.200000       0.005000
      398.300000       0.004900
      398.400000       0.004800
      398.500000       0.004700
      398.600000       0.004600
      398.700000       0.004500
      398.800000       0.004300
      398.900000       0.004200
      399.000000       0.004100
      399.100000       0.004000
      399.200000       0.004000
      399.300000       0.003900
      399.400000       0.003900
      399.500000       0.003800
      399.600000       0.003800
      399.700000       0.003600
      399.800000       0.003500
      399.900000       0.003400
      400.000000       0.003300
      400.100000       0.003200
      400.200000       0.003200
      400.300000       0.003100
      400.400000       0.003100
      400.500000       0.003000
      400.600000       0.002900
      400.700000       0.002900
      400.800000       0.002800
      400.900000       0.002800
      401.000000       0.002700
      401.100000       0.002700
