4,   channel 4 SRF from file SRF_SSH-1_Delivery_220520/SRF_DMSP-F1_SSH_Chan04.asc received June 2022 from SPASCIA
Number of data points:
461
Wavenumber (cm-1)   Filter response
      374.400000       0.002400
      374.500000       0.002500
      374.600000       0.002600
      374.700000       0.002700
      374.800000       0.002800
      374.900000       0.002900
      375.000000       0.003000
      375.100000       0.003100
      375.200000       0.003200
      375.300000       0.003300
      375.400000       0.003400
      375.500000       0.003500
      375.600000       0.003600
      375.700000       0.003700
      375.800000       0.003800
      375.900000       0.003900
      376.000000       0.004000
      376.100000       0.004100
      376.200000       0.004200
      376.300000       0.004300
      376.400000       0.004400
      376.500000       0.004500
      376.600000       0.004600
      376.700000       0.004700
      376.800000       0.004800
      376.900000       0.004900
      377.000000       0.005000
      377.100000       0.005100
      377.200000       0.005300
      377.300000       0.005400
      377.400000       0.005600
      377.500000       0.005800
      377.600000       0.006000
      377.700000       0.006200
      377.800000       0.006400
      377.900000       0.006600
      378.000000       0.006700
      378.100000       0.006800
      378.200000       0.007000
      378.300000       0.007100
      378.400000       0.007300
      378.500000       0.007500
      378.600000       0.007800
      378.700000       0.008000
      378.800000       0.008300
      378.900000       0.008500
      379.000000       0.008700
      379.100000       0.009000
      379.200000       0.009200
      379.300000       0.009500
      379.400000       0.009700
      379.500000       0.010000
      379.600000       0.010300
      379.700000       0.010600
      379.800000       0.010900
      379.900000       0.011200
      380.000000       0.011500
      380.100000       0.011700
      380.200000       0.012000
      380.300000       0.012300
      380.400000       0.012600
      380.500000       0.013000
      380.600000       0.013400
      380.700000       0.013800
      380.800000       0.014200
      380.900000       0.014600
      381.000000       0.015000
      381.100000       0.015300
      381.200000       0.015700
      381.300000       0.016100
      381.400000       0.016500
      381.500000       0.017000
      381.600000       0.017500
      381.700000       0.018000
      381.800000       0.018400
      381.900000       0.018900
      382.000000       0.019500
      382.100000       0.020000
      382.200000       0.020500
      382.300000       0.021100
      382.400000       0.021600
      382.500000       0.022100
      382.600000       0.022700
      382.700000       0.023200
      382.800000       0.023700
      382.900000       0.024300
      383.000000       0.025200
      383.100000       0.026200
      383.200000       0.027200
      383.300000       0.028200
      383.400000       0.029100
      383.500000       0.029600
      383.600000       0.030100
      383.700000       0.030600
      383.800000       0.031100
      383.900000       0.031600
      384.000000       0.032500
      384.100000       0.033500
      384.200000       0.034500
      384.300000       0.035400
      384.400000       0.036400
      384.500000       0.037900
      384.600000       0.039300
      384.700000       0.040800
      384.800000       0.042200
      384.900000       0.043700
      385.000000       0.044700
      385.100000       0.045600
      385.200000       0.046600
      385.300000       0.047600
      385.400000       0.048500
      385.500000       0.050000
      385.600000       0.051500
      385.700000       0.052900
      385.800000       0.054400
      385.900000       0.055800
      386.000000       0.057300
      386.100000       0.058700
      386.200000       0.060200
      386.300000       0.061700
      386.400000       0.063100
      386.500000       0.065000
      386.600000       0.067000
      386.700000       0.068900
      386.800000       0.070900
      386.900000       0.072800
      387.000000       0.076200
      387.100000       0.079600
      387.200000       0.083000
      387.300000       0.086400
      387.400000       0.089800
      387.500000       0.092200
      387.600000       0.094700
      387.700000       0.097100
      387.800000       0.099500
      387.900000       0.101900
      388.000000       0.103900
      388.100000       0.105800
      388.200000       0.107800
      388.300000       0.109700
      388.400000       0.111700
      388.500000       0.115000
      388.600000       0.118400
      388.700000       0.121800
      388.800000       0.125200
      388.900000       0.128600
      389.000000       0.133500
      389.100000       0.138300
      389.200000       0.143200
      389.300000       0.148100
      389.400000       0.152900
      389.500000       0.158700
      389.600000       0.164600
      389.700000       0.170400
      389.800000       0.176200
      389.900000       0.182000
      390.000000       0.188300
      390.100000       0.194700
      390.200000       0.201000
      390.300000       0.207300
      390.400000       0.213600
      390.500000       0.221800
      390.600000       0.230100
      390.700000       0.238300
      390.800000       0.246600
      390.900000       0.254900
      391.000000       0.266000
      391.100000       0.277200
      391.200000       0.288300
      391.300000       0.299500
      391.400000       0.310700
      391.500000       0.324300
      391.600000       0.337900
      391.700000       0.351500
      391.800000       0.365000
      391.900000       0.378600
      392.000000       0.394700
      392.100000       0.410700
      392.200000       0.426700
      392.300000       0.442700
      392.400000       0.458700
      392.500000       0.471400
      392.600000       0.484000
      392.700000       0.496600
      392.800000       0.509200
      392.900000       0.521800
      393.000000       0.537900
      393.100000       0.553900
      393.200000       0.569900
      393.300000       0.585900
      393.400000       0.601900
      393.500000       0.621800
      393.600000       0.641700
      393.700000       0.661700
      393.800000       0.681600
      393.900000       0.701500
      394.000000       0.717500
      394.100000       0.733500
      394.200000       0.749500
      394.300000       0.765500
      394.400000       0.781600
      394.500000       0.794200
      394.600000       0.806800
      394.700000       0.819400
      394.800000       0.832000
      394.900000       0.844700
      395.000000       0.855300
      395.100000       0.866000
      395.200000       0.876700
      395.300000       0.887400
      395.400000       0.898100
      395.500000       0.905300
      395.600000       0.912600
      395.700000       0.919900
      395.800000       0.927200
      395.900000       0.934500
      396.000000       0.941700
      396.100000       0.949000
      396.200000       0.956300
      396.300000       0.963600
      396.400000       0.970900
      396.500000       0.972300
      396.600000       0.973800
      396.700000       0.975200
      396.800000       0.976700
      396.900000       0.978200
      397.000000       0.980100
      397.100000       0.982000
      397.200000       0.984000
      397.300000       0.985900
      397.400000       0.987900
      397.500000       0.989800
      397.600000       0.991700
      397.700000       0.993700
      397.800000       0.995600
      397.900000       0.997600
      398.000000       0.998100
      398.100000       0.998500
      398.200000       0.999000
      398.300000       0.999500
      398.400000       1.000000
      398.500000       0.999500
      398.600000       0.999000
      398.700000       0.998500
      398.800000       0.998100
      398.900000       0.997600
      399.000000       0.995600
      399.100000       0.993700
      399.200000       0.991700
      399.300000       0.989800
      399.400000       0.987900
      399.500000       0.985000
      399.600000       0.982000
      399.700000       0.979100
      399.800000       0.976200
      399.900000       0.973300
      400.000000       0.968400
      400.100000       0.963600
      400.200000       0.958700
      400.300000       0.953900
      400.400000       0.949000
      400.500000       0.940300
      400.600000       0.931600
      400.700000       0.922800
      400.800000       0.914100
      400.900000       0.905300
      401.000000       0.897600
      401.100000       0.889800
      401.200000       0.882000
      401.300000       0.874300
      401.400000       0.866500
      401.500000       0.857300
      401.600000       0.848100
      401.700000       0.838800
      401.800000       0.829600
      401.900000       0.820400
      402.000000       0.801000
      402.100000       0.781600
      402.200000       0.762100
      402.300000       0.742700
      402.400000       0.723300
      402.500000       0.705800
      402.600000       0.688300
      402.700000       0.670900
      402.800000       0.653400
      402.900000       0.635900
      403.000000       0.620400
      403.100000       0.604900
      403.200000       0.589300
      403.300000       0.573800
      403.400000       0.558300
      403.500000       0.541300
      403.600000       0.524300
      403.700000       0.507300
      403.800000       0.490300
      403.900000       0.473300
      404.000000       0.457300
      404.100000       0.441300
      404.200000       0.425200
      404.300000       0.409200
      404.400000       0.393200
      404.500000       0.382500
      404.600000       0.371800
      404.700000       0.361200
      404.800000       0.350500
      404.900000       0.339800
      405.000000       0.327700
      405.100000       0.315500
      405.200000       0.303400
      405.300000       0.291300
      405.400000       0.279100
      405.500000       0.268900
      405.600000       0.258700
      405.700000       0.248500
      405.800000       0.238300
      405.900000       0.228200
      406.000000       0.219900
      406.100000       0.211700
      406.200000       0.203400
      406.300000       0.195100
      406.400000       0.186900
      406.500000       0.179600
      406.600000       0.172300
      406.700000       0.165000
      406.800000       0.157800
      406.900000       0.150500
      407.000000       0.147100
      407.100000       0.143700
      407.200000       0.140300
      407.300000       0.136900
      407.400000       0.133500
      407.500000       0.129100
      407.600000       0.124800
      407.700000       0.120400
      407.800000       0.116000
      407.900000       0.111700
      408.000000       0.107800
      408.100000       0.103900
      408.200000       0.100000
      408.300000       0.096100
      408.400000       0.092200
      408.500000       0.089800
      408.600000       0.087400
      408.700000       0.085000
      408.800000       0.082500
      408.900000       0.080100
      409.000000       0.079100
      409.100000       0.078200
      409.200000       0.077200
      409.300000       0.076200
      409.400000       0.075200
      409.500000       0.073300
      409.600000       0.071400
      409.700000       0.069400
      409.800000       0.067500
      409.900000       0.065500
      410.000000       0.063600
      410.100000       0.061700
      410.200000       0.059700
      410.300000       0.057800
      410.400000       0.055800
      410.500000       0.053900
      410.600000       0.051900
      410.700000       0.050000
      410.800000       0.048100
      410.900000       0.046100
      411.000000       0.045100
      411.100000       0.044200
      411.200000       0.043200
      411.300000       0.042200
      411.400000       0.041300
      411.500000       0.039800
      411.600000       0.038300
      411.700000       0.036900
      411.800000       0.035400
      411.900000       0.034000
      412.000000       0.033000
      412.100000       0.032000
      412.200000       0.031100
      412.300000       0.030100
      412.400000       0.029100
      412.500000       0.028200
      412.600000       0.027200
      412.700000       0.026200
      412.800000       0.025200
      412.900000       0.024300
      413.000000       0.023700
      413.100000       0.023200
      413.200000       0.022700
      413.300000       0.022100
      413.400000       0.021600
      413.500000       0.021000
      413.600000       0.020300
      413.700000       0.019700
      413.800000       0.019100
      413.900000       0.018400
      414.000000       0.017900
      414.100000       0.017400
      414.200000       0.016800
      414.300000       0.016300
      414.400000       0.015800
      414.500000       0.015300
      414.600000       0.014900
      414.700000       0.014500
      414.800000       0.014000
      414.900000       0.013600
      415.000000       0.013200
      415.100000       0.012800
      415.200000       0.012400
      415.300000       0.012000
      415.400000       0.011700
      415.500000       0.011300
      415.600000       0.011000
      415.700000       0.010600
      415.800000       0.010300
      415.900000       0.010000
      416.000000       0.009700
      416.100000       0.009400
      416.200000       0.009100
      416.300000       0.008800
      416.400000       0.008500
      416.500000       0.008300
      416.600000       0.008000
      416.700000       0.007800
      416.800000       0.007500
      416.900000       0.007300
      417.000000       0.007100
      417.100000       0.006900
      417.200000       0.006700
      417.300000       0.006500
      417.400000       0.006300
      417.500000       0.006100
      417.600000       0.005900
      417.700000       0.005700
      417.800000       0.005500
      417.900000       0.005300
      418.000000       0.005200
      418.100000       0.005000
      418.200000       0.004900
      418.300000       0.004800
      418.400000       0.004600
      418.500000       0.004500
      418.600000       0.004300
      418.700000       0.004200
      418.800000       0.004000
      418.900000       0.003900
      419.000000       0.003800
      419.100000       0.003700
      419.200000       0.003600
      419.300000       0.003500
      419.400000       0.003400
      419.500000       0.003300
      419.600000       0.003200
      419.700000       0.003100
      419.800000       0.003000
      419.900000       0.002900
      420.000000       0.002800
      420.100000       0.002700
      420.200000       0.002600
      420.300000       0.002500
      420.400000       0.002400
