   3  ,noaa_17_hirs_03.flt
Number of data points:
73
Wavenumber (cm-1)   Filter response
      666.570000       0.000000
      666.670000       0.000648
      668.520000       0.002270
      670.370000       0.004107
      672.220000       0.006225
      674.070000       0.008607
      674.570000       0.013756
      675.070000       0.013467
      675.570000       0.012616
      676.070000       0.016439
      676.570000       0.027061
      677.070000       0.039486
      677.570000       0.047763
      678.070000       0.054254
      678.570000       0.064754
      679.070000       0.080387
      679.570000       0.100170
      680.070000       0.123160
      680.570000       0.149940
      681.070000       0.179020
      681.570000       0.212670
      682.070000       0.254680
      682.570000       0.300190
      683.070000       0.342610
      683.570000       0.381040
      684.070000       0.418760
      684.570000       0.457760
      685.070000       0.500700
      685.570000       0.540650
      686.070000       0.570550
      686.570000       0.593250
      687.070000       0.614420
      687.570000       0.639900
      688.070000       0.664800
      688.570000       0.679900
      689.070000       0.688130
      689.570000       0.698750
      690.070000       0.716600
      690.570000       0.737490
      691.070000       0.760000
      691.570000       0.785160
      692.070000       0.819490
      692.570000       0.864000
      693.070000       0.907660
      693.570000       0.944590
      694.070000       0.974820
      694.570000       0.996120
      695.070000       1.000000
      695.570000       0.979770
      696.070000       0.933260
      696.570000       0.859120
      697.070000       0.761920
      697.570000       0.653850
      698.070000       0.545980
      698.570000       0.442650
      699.070000       0.349570
      699.570000       0.268850
      700.070000       0.202620
      700.570000       0.153520
      701.070000       0.120900
      701.570000       0.099434
      702.070000       0.079559
      702.570000       0.060100
      703.070000       0.043552
      703.570000       0.033749
      704.070000       0.028153
      704.570000       0.024577
      704.970000       0.021330
      706.620000       0.016991
      708.270000       0.012382
      709.920000       0.007480
      711.570000       0.002338
      712.070000       0.000000
