  12  ,noaa_16_hirs_12.flt
Number of data points:
88
Wavenumber (cm-1)   Filter response
     1480.000000       0.000000
     1480.700000       0.010313
     1484.200000       0.011839
     1487.000000       0.013289
     1490.400000       0.012951
     1491.900000       0.015995
     1493.200000       0.020570
     1494.600000       0.026560
     1495.900000       0.050869
     1497.200000       0.090058
     1498.200000       0.129060
     1499.700000       0.174370
     1500.600000       0.221200
     1501.400000       0.289800
     1502.300000       0.398980
     1502.900000       0.495710
     1503.900000       0.600440
     1504.400000       0.687150
     1505.400000       0.742880
     1505.900000       0.813290
     1506.300000       0.884250
     1506.600000       0.936280
     1507.100000       0.968110
     1507.600000       0.989640
     1508.100000       0.999740
     1509.100000       1.000000
     1510.300000       0.992560
     1511.100000       0.975050
     1512.000000       0.948020
     1513.000000       0.910760
     1514.000000       0.868480
     1515.000000       0.837430
     1516.500000       0.808260
     1516.800000       0.794600
     1518.300000       0.779240
     1519.700000       0.768600
     1520.800000       0.771290
     1521.800000       0.781080
     1523.400000       0.783930
     1524.400000       0.795890
     1525.400000       0.808840
     1526.000000       0.824200
     1527.400000       0.834630
     1528.000000       0.839850
     1529.000000       0.843930
     1530.500000       0.839280
     1531.600000       0.829730
     1532.700000       0.812000
     1533.700000       0.789410
     1535.100000       0.772520
     1535.700000       0.750980
     1536.700000       0.735090
     1538.100000       0.724550
     1539.600000       0.723760
     1540.900000       0.715810
     1542.300000       0.713670
     1543.600000       0.714220
     1544.600000       0.703570
     1545.600000       0.688510
     1546.800000       0.669230
     1547.900000       0.642850
     1548.900000       0.608990
     1549.800000       0.579440
     1550.800000       0.539610
     1552.100000       0.492180
     1553.800000       0.449140
     1554.600000       0.368080
     1555.300000       0.306870
     1555.800000       0.278070
     1556.800000       0.223280
     1557.700000       0.189870
     1558.500000       0.103400
     1559.000000       0.083061
     1560.800000       0.062455
     1562.200000       0.054038
     1562.900000       0.042227
     1563.700000       0.029741
     1564.500000       0.022621
     1565.200000       0.016573
     1566.200000       0.012227
     1567.700000       0.009527
     1569.400000       0.006913
     1571.100000       0.004477
     1573.400000       0.004263
     1577.700000       0.003268
     1580.600000       0.003112
     1581.800000       0.002436
     1582.000000       0.000000
