  14  ,noaa_17_hirs_14.flt
Number of data points:
98
Wavenumber (cm-1)   Filter response
     2178.000000       0.000000
     2178.600000       0.001448
     2181.100000       0.004721
     2183.600000       0.008005
     2186.000000       0.011304
     2188.500000       0.014629
     2189.300000       0.019774
     2189.800000       0.022722
     2190.300000       0.023767
     2190.800000       0.029512
     2191.300000       0.040115
     2191.800000       0.047206
     2192.300000       0.049721
     2192.800000       0.055604
     2193.300000       0.067812
     2193.800000       0.081638
     2194.300000       0.096198
     2194.800000       0.112960
     2195.300000       0.132960
     2195.800000       0.156980
     2196.300000       0.184150
     2196.800000       0.215610
     2197.300000       0.251830
     2197.800000       0.288520
     2198.300000       0.323180
     2198.800000       0.358470
     2199.300000       0.398390
     2199.800000       0.442340
     2200.300000       0.487150
     2200.800000       0.530430
     2201.300000       0.572470
     2201.800000       0.615210
     2202.300000       0.657010
     2202.800000       0.696910
     2203.300000       0.734040
     2203.800000       0.768690
     2204.300000       0.800100
     2204.800000       0.829460
     2205.300000       0.857660
     2205.800000       0.883220
     2206.300000       0.905670
     2206.800000       0.924430
     2207.300000       0.939930
     2207.800000       0.953940
     2208.300000       0.970080
     2208.800000       0.985040
     2209.300000       0.993560
     2209.800000       0.995770
     2210.300000       0.997080
     2210.800000       0.999590
     2211.300000       1.000000
     2211.800000       0.996790
     2212.300000       0.991310
     2212.800000       0.985510
     2213.300000       0.979800
     2213.800000       0.973530
     2214.300000       0.967080
     2214.800000       0.961220
     2215.300000       0.953680
     2215.800000       0.941280
     2216.300000       0.925660
     2216.800000       0.908370
     2217.300000       0.886350
     2217.800000       0.858340
     2218.300000       0.825710
     2218.800000       0.790120
     2219.300000       0.751720
     2219.800000       0.708510
     2220.300000       0.659760
     2220.800000       0.607870
     2221.300000       0.554740
     2221.800000       0.500530
     2222.300000       0.448430
     2222.800000       0.398310
     2223.300000       0.346950
     2223.800000       0.296120
     2224.300000       0.252330
     2224.800000       0.217070
     2225.300000       0.185150
     2225.800000       0.153490
     2226.300000       0.123790
     2226.800000       0.099582
     2227.300000       0.083021
     2227.800000       0.069976
     2228.300000       0.058001
     2228.800000       0.047863
     2229.300000       0.040336
     2229.800000       0.033882
     2230.300000       0.030813
     2230.800000       0.030814
     2231.300000       0.027420
     2231.800000       0.020485
     2232.200000       0.015400
     2234.600000       0.011932
     2236.900000       0.008480
     2239.200000       0.005029
     2241.600000       0.001553
     2242.000000       0.000000
