03  , Filter noaa_07_avhrr_03.flt
Number of data points:
60
Wavenumber (cm-1)   Filter response
     2439.024000       0.001998
     2447.681800       0.001179
     2456.339600       0.002810
     2464.997400       0.007103
     2473.655200       0.010391
     2482.313000       0.012951
     2490.970800       0.019008
     2499.628600       0.031274
     2508.286400       0.055990
     2516.944200       0.119352
     2525.602000       0.243523
     2534.259800       0.424693
     2542.917600       0.630065
     2551.575400       0.786821
     2560.233200       0.868040
     2568.891000       0.904890
     2577.548800       0.921306
     2586.206600       0.931667
     2594.864400       0.943692
     2603.522200       0.959677
     2612.180000       0.970784
     2620.837800       0.963925
     2629.495600       0.944122
     2638.153400       0.925783
     2646.811200       0.922139
     2655.469000       0.942774
     2664.126800       0.970813
     2672.784600       0.978992
     2681.442400       0.973453
     2690.100200       0.977815
     2698.758000       0.991448
     2707.415800       0.997618
     2716.073600       0.994834
     2724.731400       0.995207
     2733.389200       1.000000
     2742.047000       0.996556
     2750.704800       0.981001
     2759.362600       0.967311
     2768.020400       0.965044
     2776.678200       0.964614
     2785.336000       0.954942
     2793.993800       0.937895
     2802.651600       0.917949
     2811.309400       0.870222
     2819.967200       0.749770
     2828.625000       0.556222
     2837.282800       0.355126
     2845.940600       0.202792
     2854.598400       0.105025
     2863.256200       0.055639
     2871.914000       0.038437
     2880.571800       0.031549
     2889.229600       0.022675
     2897.887400       0.014473
     2906.545200       0.010078
     2915.203000       0.008482
     2923.860800       0.007424
     2932.518600       0.005854
     2941.176400       0.003996
     2949.834200       0.000000
