  13  ,noaa_10_hirs_13.flt
Number of data points:
87
Wavenumber (cm-1)   Filter response
     2135.100000       0.000000
     2141.700000       0.001708
     2150.700000       0.000527
     2156.500000       0.000667
     2159.500000       0.004619
     2161.700000       0.008187
     2163.400000       0.009101
     2164.800000       0.011966
     2166.300000       0.014874
     2167.900000       0.025566
     2169.400000       0.038947
     2170.600000       0.056208
     2171.700000       0.073664
     2172.600000       0.099535
     2173.500000       0.131520
     2174.300000       0.163040
     2175.100000       0.202820
     2175.700000       0.234780
     2176.200000       0.269850
     2176.500000       0.303770
     2176.900000       0.348840
     2177.300000       0.396970
     2177.900000       0.443700
     2178.600000       0.502000
     2179.300000       0.554800
     2179.900000       0.604150
     2180.500000       0.656630
     2181.300000       0.712810
     2182.100000       0.760160
     2182.900000       0.811900
     2183.800000       0.858020
     2184.400000       0.889370
     2185.200000       0.915720
     2185.900000       0.929490
     2186.600000       0.934920
     2187.500000       0.930930
     2188.400000       0.918510
     2189.400000       0.893150
     2190.400000       0.870530
     2191.400000       0.850130
     2192.300000       0.845760
     2193.200000       0.853930
     2193.800000       0.867130
     2194.100000       0.882390
     2194.700000       0.906720
     2195.400000       0.938160
     2196.000000       0.970090
     2196.600000       0.988870
     2197.200000       1.000000
     2197.900000       0.985560
     2198.000000       0.966030
     2198.300000       0.947790
     2198.600000       0.918590
     2198.800000       0.894270
     2199.000000       0.849910
     2199.300000       0.795770
     2199.600000       0.736550
     2199.800000       0.675610
     2200.100000       0.611250
     2200.500000       0.553910
     2200.900000       0.497530
     2201.200000       0.435040
     2201.600000       0.371060
     2201.800000       0.319990
     2202.300000       0.271090
     2202.600000       0.226330
     2203.500000       0.170710
     2204.100000       0.133740
     2204.500000       0.107580
     2205.200000       0.083919
     2205.800000       0.064158
     2206.800000       0.046077
     2207.700000       0.040396
     2208.500000       0.033305
     2209.100000       0.021899
     2210.200000       0.017407
     2212.000000       0.015524
     2213.500000       0.014480
     2214.900000       0.011837
     2216.600000       0.009834
     2218.500000       0.009330
     2220.000000       0.006163
     2221.600000       0.005194
     2223.500000       0.002622
     2228.600000       0.002531
     2238.500000       0.001107
     2245.100000       0.000000
