8,    channel 8 SRF extracted from SRF_FY-3F_MERSI-III.zip(FY3F_MERSI_SRF_CH08_Pub.txt) (received Nov 2023)
Number of data points:
97
Wavenumber (cm-1)   Filter response
    22296.499300       0.003784
    22321.413600       0.001749
    22346.378700       0.003830
    22371.409700       0.002800
    22396.386500       0.001763
    22421.534700       0.001763
    22446.734500       0.001763
    22471.895000       0.001799
    22497.213200       0.001799
    22522.487000       0.002907
    22547.924500       0.004022
    22573.317600       0.004022
    22598.875200       0.002929
    22624.388300       0.004068
    22650.066900       0.002960
    22675.701000       0.001844
    22701.501400       0.003007
    22727.252100       0.004178
    22753.175100       0.004218
    22779.053700       0.005406
    22804.985900       0.006602
    22831.091900       0.006644
    22857.153300       0.006686
    22883.269000       0.006729
    22909.455000       0.006772
    22935.811400       0.006815
    22962.117800       0.006859
    22988.489900       0.006903
    23014.922600       0.006947
    23041.416300       0.009542
    23068.093300       0.013441
    23094.720200       0.016074
    23121.403300       0.023940
    23148.153500       0.033178
    23174.971000       0.043903
    23201.850800       0.057423
    23228.792900       0.075027
    23255.808500       0.097026
    23282.881700       0.120611
    23310.023300       0.151406
    23337.228300       0.183986
    23364.496900       0.221116
    23391.834800       0.257511
    23419.242100       0.299976
    23446.708300       0.337508
    23474.134300       0.377012
    23501.735000       0.420030
    23529.406200       0.460824
    23557.153800       0.500835
    23584.955700       0.547374
    23612.711900       0.593111
    23640.656300       0.639659
    23668.672700       0.683810
    23696.626300       0.730200
    23724.781200       0.769748
    23752.997300       0.811473
    23781.167600       0.847732
    23809.523800       0.882865
    23837.953400       0.913920
    23866.331400       0.935775
    23894.902600       0.958196
    23923.416400       0.974471
    23952.124500       0.982707
    23980.786600       0.991263
    24009.638400       0.992977
    24038.438400       0.995107
    24067.440800       0.993845
    24096.385500       0.997568
    24125.400000       0.996382
    24154.618500       1.000000
    24183.779300       0.989845
    24213.010600       0.981146
    24242.447800       0.963188
    24271.832900       0.943229
    24301.289300       0.920897
    24330.941700       0.899960
    24360.547800       0.872971
    24390.226100       0.849004
    24419.976700       0.817032
    24449.937500       0.790125
    24479.840100       0.754984
    24509.821900       0.726990
    24539.877300       0.692454
    24570.012500       0.655183
    24600.215700       0.615393
    24630.505500       0.580841
    24660.869900       0.545062
    24691.309300       0.516839
    24721.830000       0.491012
    24752.420100       0.462877
    24783.098300       0.441019
    24813.852700       0.412124
    24844.683500       0.371620
    24875.591000       0.334361
    24906.581600       0.296654
    24937.655900       0.247797
    24968.801500       0.196955
