03  , Filter noaa_10_avhrr_03.flt
Number of data points:
60
Wavenumber (cm-1)   Filter response
     2424.242000       0.000000
     2432.419700       0.000374
     2440.597400       0.001073
     2448.775100       0.002156
     2456.952800       0.003086
     2465.130500       0.004227
     2473.308200       0.007326
     2481.485900       0.013688
     2489.663600       0.024517
     2497.841300       0.046763
     2506.019000       0.091645
     2514.196700       0.172493
     2522.374400       0.300095
     2530.552100       0.459503
     2538.729800       0.623584
     2546.907500       0.758783
     2555.085200       0.837006
     2563.262900       0.874039
     2571.440600       0.897595
     2579.618300       0.918870
     2587.796000       0.941584
     2595.973700       0.958919
     2604.151400       0.962016
     2612.329100       0.954273
     2620.506800       0.944084
     2628.684500       0.939736
     2636.862200       0.948404
     2645.039900       0.964869
     2653.217600       0.975954
     2661.395300       0.979106
     2669.573000       0.982095
     2677.750700       0.988561
     2685.928400       0.995626
     2694.106100       1.000000
     2702.283800       0.998805
     2710.461500       0.990382
     2718.639200       0.978318
     2726.816900       0.967450
     2734.994600       0.958919
     2743.172300       0.951528
     2751.350000       0.941503
     2759.527700       0.921750
     2767.705400       0.890776
     2775.883100       0.863578
     2784.060800       0.853254
     2792.238500       0.832115
     2800.416200       0.753512
     2808.593900       0.610515
     2816.771600       0.448771
     2824.949300       0.309251
     2833.127000       0.198106
     2841.304700       0.112354
     2849.482400       0.050928
     2857.660100       0.014410
     2865.837800       0.001003
     2874.015500       0.000831
     2882.193200       0.002712
     2890.370900       0.002042
     2898.548600       0.000000
     2906.726300       0.000000
