8, channel 8 SRF extracted from AHI-8_SpectralResponsivity_Data.xlsx (release Sept 2013)
Number of data points:
4201
Wavenumber (cm-1)   Filter response
     1421.000000       0.000551
     1421.100000       0.000527
     1421.200000       0.000503
     1421.300000       0.000481
     1421.400000       0.000462
     1421.500000       0.000453
     1421.600000       0.000448
     1421.700000       0.000448
     1421.800000       0.000460
     1421.900000       0.000476
     1422.000000       0.000499
     1422.100000       0.000527
     1422.200000       0.000557
     1422.300000       0.000587
     1422.400000       0.000617
     1422.500000       0.000641
     1422.600000       0.000662
     1422.700000       0.000671
     1422.800000       0.000672
     1422.900000       0.000671
     1423.000000       0.000656
     1423.100000       0.000632
     1423.200000       0.000602
     1423.300000       0.000568
     1423.400000       0.000531
     1423.500000       0.000494
     1423.600000       0.000459
     1423.700000       0.000430
     1423.800000       0.000405
     1423.900000       0.000392
     1424.000000       0.000389
     1424.100000       0.000387
     1424.200000       0.000397
     1424.300000       0.000418
     1424.400000       0.000443
     1424.500000       0.000471
     1424.600000       0.000502
     1424.700000       0.000532
     1424.800000       0.000558
     1424.900000       0.000579
     1425.000000       0.000591
     1425.100000       0.000597
     1425.200000       0.000593
     1425.300000       0.000580
     1425.400000       0.000560
     1425.500000       0.000534
     1425.600000       0.000503
     1425.700000       0.000470
     1425.800000       0.000438
     1425.900000       0.000406
     1426.000000       0.000379
     1426.100000       0.000358
     1426.200000       0.000346
     1426.300000       0.000338
     1426.400000       0.000340
     1426.500000       0.000349
     1426.600000       0.000364
     1426.700000       0.000385
     1426.800000       0.000408
     1426.900000       0.000433
     1427.000000       0.000457
     1427.100000       0.000478
     1427.200000       0.000492
     1427.300000       0.000502
     1427.400000       0.000502
     1427.500000       0.000495
     1427.600000       0.000484
     1427.700000       0.000462
     1427.800000       0.000435
     1427.900000       0.000404
     1428.000000       0.000373
     1428.100000       0.000342
     1428.200000       0.000314
     1428.300000       0.000290
     1428.400000       0.000276
     1428.500000       0.000268
     1428.600000       0.000267
     1428.700000       0.000275
     1428.800000       0.000292
     1428.900000       0.000316
     1429.000000       0.000343
     1429.100000       0.000376
     1429.200000       0.000408
     1429.300000       0.000439
     1429.400000       0.000467
     1429.500000       0.000491
     1429.600000       0.000502
     1429.700000       0.000504
     1429.800000       0.000504
     1429.900000       0.000493
     1430.000000       0.000470
     1430.100000       0.000444
     1430.200000       0.000414
     1430.300000       0.000383
     1430.400000       0.000352
     1430.500000       0.000325
     1430.600000       0.000303
     1430.700000       0.000291
     1430.800000       0.000284
     1430.900000       0.000287
     1431.000000       0.000298
     1431.100000       0.000316
     1431.200000       0.000342
     1431.300000       0.000371
     1431.400000       0.000405
     1431.500000       0.000437
     1431.600000       0.000469
     1431.700000       0.000496
     1431.800000       0.000517
     1431.900000       0.000525
     1432.000000       0.000528
     1432.100000       0.000526
     1432.200000       0.000510
     1432.300000       0.000490
     1432.400000       0.000462
     1432.500000       0.000431
     1432.600000       0.000398
     1432.700000       0.000367
     1432.800000       0.000337
     1432.900000       0.000315
     1433.000000       0.000296
     1433.100000       0.000291
     1433.200000       0.000292
     1433.300000       0.000297
     1433.400000       0.000314
     1433.500000       0.000338
     1433.600000       0.000367
     1433.700000       0.000399
     1433.800000       0.000433
     1433.900000       0.000464
     1434.000000       0.000492
     1434.100000       0.000514
     1434.200000       0.000529
     1434.300000       0.000536
     1434.400000       0.000532
     1434.500000       0.000523
     1434.600000       0.000506
     1434.700000       0.000480
     1434.800000       0.000452
     1434.900000       0.000420
     1435.000000       0.000390
     1435.100000       0.000362
     1435.200000       0.000339
     1435.300000       0.000321
     1435.400000       0.000317
     1435.500000       0.000315
     1435.600000       0.000318
     1435.700000       0.000335
     1435.800000       0.000356
     1435.900000       0.000384
     1436.000000       0.000413
     1436.100000       0.000444
     1436.200000       0.000472
     1436.300000       0.000498
     1436.400000       0.000518
     1436.500000       0.000532
     1436.600000       0.000537
     1436.700000       0.000535
     1436.800000       0.000530
     1436.900000       0.000516
     1437.000000       0.000498
     1437.100000       0.000478
     1437.200000       0.000458
     1437.300000       0.000439
     1437.400000       0.000425
     1437.500000       0.000417
     1437.600000       0.000413
     1437.700000       0.000417
     1437.800000       0.000429
     1437.900000       0.000447
     1438.000000       0.000471
     1438.100000       0.000499
     1438.200000       0.000530
     1438.300000       0.000560
     1438.400000       0.000588
     1438.500000       0.000613
     1438.600000       0.000631
     1438.700000       0.000635
     1438.800000       0.000636
     1438.900000       0.000633
     1439.000000       0.000613
     1439.100000       0.000589
     1439.200000       0.000557
     1439.300000       0.000523
     1439.400000       0.000487
     1439.500000       0.000452
     1439.600000       0.000420
     1439.700000       0.000395
     1439.800000       0.000375
     1439.900000       0.000368
     1440.000000       0.000370
     1440.100000       0.000375
     1440.200000       0.000391
     1440.300000       0.000416
     1440.400000       0.000445
     1440.500000       0.000478
     1440.600000       0.000511
     1440.700000       0.000543
     1440.800000       0.000570
     1440.900000       0.000592
     1441.000000       0.000600
     1441.100000       0.000604
     1441.200000       0.000599
     1441.300000       0.000582
     1441.400000       0.000560
     1441.500000       0.000529
     1441.600000       0.000496
     1441.700000       0.000460
     1441.800000       0.000426
     1441.900000       0.000395
     1442.000000       0.000371
     1442.100000       0.000354
     1442.200000       0.000350
     1442.300000       0.000354
     1442.400000       0.000363
     1442.500000       0.000385
     1442.600000       0.000415
     1442.700000       0.000450
     1442.800000       0.000489
     1442.900000       0.000530
     1443.000000       0.000569
     1443.100000       0.000604
     1443.200000       0.000632
     1443.300000       0.000652
     1443.400000       0.000664
     1443.500000       0.000662
     1443.600000       0.000656
     1443.700000       0.000643
     1443.800000       0.000618
     1443.900000       0.000590
     1444.000000       0.000559
     1444.100000       0.000529
     1444.200000       0.000501
     1444.300000       0.000477
     1444.400000       0.000459
     1444.500000       0.000455
     1444.600000       0.000456
     1444.700000       0.000459
     1444.800000       0.000476
     1444.900000       0.000499
     1445.000000       0.000527
     1445.100000       0.000558
     1445.200000       0.000589
     1445.300000       0.000618
     1445.400000       0.000643
     1445.500000       0.000660
     1445.600000       0.000668
     1445.700000       0.000671
     1445.800000       0.000665
     1445.900000       0.000647
     1446.000000       0.000624
     1446.100000       0.000592
     1446.200000       0.000559
     1446.300000       0.000523
     1446.400000       0.000492
     1446.500000       0.000463
     1446.600000       0.000441
     1446.700000       0.000427
     1446.800000       0.000424
     1446.900000       0.000432
     1447.000000       0.000444
     1447.100000       0.000470
     1447.200000       0.000505
     1447.300000       0.000544
     1447.400000       0.000586
     1447.500000       0.000629
     1447.600000       0.000669
     1447.700000       0.000705
     1447.800000       0.000733
     1447.900000       0.000752
     1448.000000       0.000763
     1448.100000       0.000760
     1448.200000       0.000751
     1448.300000       0.000735
     1448.400000       0.000707
     1448.500000       0.000677
     1448.600000       0.000644
     1448.700000       0.000614
     1448.800000       0.000586
     1448.900000       0.000565
     1449.000000       0.000550
     1449.100000       0.000546
     1449.200000       0.000551
     1449.300000       0.000559
     1449.400000       0.000581
     1449.500000       0.000609
     1449.600000       0.000643
     1449.700000       0.000679
     1449.800000       0.000716
     1449.900000       0.000750
     1450.000000       0.000780
     1450.100000       0.000804
     1450.200000       0.000819
     1450.300000       0.000827
     1450.400000       0.000824
     1450.500000       0.000814
     1450.600000       0.000798
     1450.700000       0.000773
     1450.800000       0.000748
     1450.900000       0.000721
     1451.000000       0.000696
     1451.100000       0.000674
     1451.200000       0.000662
     1451.300000       0.000656
     1451.400000       0.000654
     1451.500000       0.000665
     1451.600000       0.000683
     1451.700000       0.000708
     1451.800000       0.000741
     1451.900000       0.000776
     1452.000000       0.000812
     1452.100000       0.000847
     1452.200000       0.000878
     1452.300000       0.000904
     1452.400000       0.000924
     1452.500000       0.000926
     1452.600000       0.000926
     1452.700000       0.000922
     1452.800000       0.000900
     1452.900000       0.000874
     1453.000000       0.000842
     1453.100000       0.000810
     1453.200000       0.000779
     1453.300000       0.000750
     1453.400000       0.000727
     1453.500000       0.000715
     1453.600000       0.000712
     1453.700000       0.000712
     1453.800000       0.000725
     1453.900000       0.000749
     1454.000000       0.000780
     1454.100000       0.000817
     1454.200000       0.000857
     1454.300000       0.000898
     1454.400000       0.000936
     1454.500000       0.000971
     1454.600000       0.000997
     1454.700000       0.001019
     1454.800000       0.001024
     1454.900000       0.001023
     1455.000000       0.001020
     1455.100000       0.001001
     1455.200000       0.000977
     1455.300000       0.000948
     1455.400000       0.000920
     1455.500000       0.000892
     1455.600000       0.000869
     1455.700000       0.000855
     1455.800000       0.000845
     1455.900000       0.000849
     1456.000000       0.000861
     1456.100000       0.000882
     1456.200000       0.000917
     1456.300000       0.000958
     1456.400000       0.001004
     1456.500000       0.001051
     1456.600000       0.001100
     1456.700000       0.001146
     1456.800000       0.001189
     1456.900000       0.001222
     1457.000000       0.001248
     1457.100000       0.001258
     1457.200000       0.001256
     1457.300000       0.001250
     1457.400000       0.001232
     1457.500000       0.001203
     1457.600000       0.001172
     1457.700000       0.001138
     1457.800000       0.001106
     1457.900000       0.001079
     1458.000000       0.001066
     1458.100000       0.001058
     1458.200000       0.001071
     1458.300000       0.001129
     1458.400000       0.001187
     1458.500000       0.001222
     1458.600000       0.001261
     1458.700000       0.001313
     1458.800000       0.001368
     1458.900000       0.001423
     1459.000000       0.001474
     1459.100000       0.001519
     1459.200000       0.001556
     1459.300000       0.001582
     1459.400000       0.001599
     1459.500000       0.001599
     1459.600000       0.001593
     1459.700000       0.001580
     1459.800000       0.001553
     1459.900000       0.001525
     1460.000000       0.001494
     1460.100000       0.001464
     1460.200000       0.001439
     1460.300000       0.001425
     1460.400000       0.001420
     1460.500000       0.001419
     1460.600000       0.001433
     1460.700000       0.001459
     1460.800000       0.001494
     1460.900000       0.001539
     1461.000000       0.001588
     1461.100000       0.001642
     1461.200000       0.001694
     1461.300000       0.001745
     1461.400000       0.001787
     1461.500000       0.001824
     1461.600000       0.001847
     1461.700000       0.001862
     1461.800000       0.001866
     1461.900000       0.001858
     1462.000000       0.001845
     1462.100000       0.001822
     1462.200000       0.001795
     1462.300000       0.001768
     1462.400000       0.001743
     1462.500000       0.001725
     1462.600000       0.001714
     1462.700000       0.001715
     1462.800000       0.001726
     1462.900000       0.001745
     1463.000000       0.001781
     1463.100000       0.001825
     1463.200000       0.001880
     1463.300000       0.001938
     1463.400000       0.002002
     1463.500000       0.002064
     1463.600000       0.002123
     1463.700000       0.002174
     1463.800000       0.002216
     1463.900000       0.002248
     1464.000000       0.002265
     1464.100000       0.002275
     1464.200000       0.002272
     1464.300000       0.002259
     1464.400000       0.002242
     1464.500000       0.002217
     1464.600000       0.002192
     1464.700000       0.002168
     1464.800000       0.002157
     1464.900000       0.002154
     1465.000000       0.002153
     1465.100000       0.002170
     1465.200000       0.002200
     1465.300000       0.002239
     1465.400000       0.002291
     1465.500000       0.002349
     1465.600000       0.002414
     1465.700000       0.002480
     1465.800000       0.002548
     1465.900000       0.002608
     1466.000000       0.002665
     1466.100000       0.002708
     1466.200000       0.002743
     1466.300000       0.002761
     1466.400000       0.002770
     1466.500000       0.002772
     1466.600000       0.002764
     1466.700000       0.002749
     1466.800000       0.002731
     1466.900000       0.002712
     1467.000000       0.002699
     1467.100000       0.002691
     1467.200000       0.002693
     1467.300000       0.002709
     1467.400000       0.002732
     1467.500000       0.002775
     1467.600000       0.002827
     1467.700000       0.002892
     1467.800000       0.002964
     1467.900000       0.003043
     1468.000000       0.003124
     1468.100000       0.003205
     1468.200000       0.003282
     1468.300000       0.003352
     1468.400000       0.003413
     1468.500000       0.003460
     1468.600000       0.003498
     1468.700000       0.003520
     1468.800000       0.003534
     1468.900000       0.003537
     1469.000000       0.003536
     1469.100000       0.003535
     1469.200000       0.003533
     1469.300000       0.003532
     1469.400000       0.003541
     1469.500000       0.003556
     1469.600000       0.003585
     1469.700000       0.003627
     1469.800000       0.003681
     1469.900000       0.003751
     1470.000000       0.003830
     1470.100000       0.003919
     1470.200000       0.004011
     1470.300000       0.004107
     1470.400000       0.004199
     1470.500000       0.004287
     1470.600000       0.004366
     1470.700000       0.004437
     1470.800000       0.004495
     1470.900000       0.004540
     1471.000000       0.004575
     1471.100000       0.004595
     1471.200000       0.004609
     1471.300000       0.004617
     1471.400000       0.004623
     1471.500000       0.004631
     1471.600000       0.004645
     1471.700000       0.004664
     1471.800000       0.004696
     1471.900000       0.004739
     1472.000000       0.004795
     1472.100000       0.004864
     1472.200000       0.004946
     1472.300000       0.005039
     1472.400000       0.005139
     1472.500000       0.005246
     1472.600000       0.005352
     1472.700000       0.005457
     1472.800000       0.005555
     1472.900000       0.005646
     1473.000000       0.005725
     1473.100000       0.005794
     1473.200000       0.005852
     1473.300000       0.005898
     1473.400000       0.005935
     1473.500000       0.005964
     1473.600000       0.005989
     1473.700000       0.006015
     1473.800000       0.006041
     1473.900000       0.006076
     1474.000000       0.006122
     1474.100000       0.006179
     1474.200000       0.006252
     1474.300000       0.006339
     1474.400000       0.006441
     1474.500000       0.006555
     1474.600000       0.006681
     1474.700000       0.006816
     1474.800000       0.006956
     1474.900000       0.007099
     1475.000000       0.007236
     1475.100000       0.007370
     1475.200000       0.007493
     1475.300000       0.007603
     1475.400000       0.007698
     1475.500000       0.007780
     1475.600000       0.007851
     1475.700000       0.007909
     1475.800000       0.007960
     1475.900000       0.008006
     1476.000000       0.008050
     1476.100000       0.008096
     1476.200000       0.008146
     1476.300000       0.008208
     1476.400000       0.008281
     1476.500000       0.008369
     1476.600000       0.008475
     1476.700000       0.008596
     1476.800000       0.008733
     1476.900000       0.008880
     1477.000000       0.009036
     1477.100000       0.009198
     1477.200000       0.009360
     1477.300000       0.009520
     1477.400000       0.009675
     1477.500000       0.009822
     1477.600000       0.009957
     1477.700000       0.010082
     1477.800000       0.010195
     1477.900000       0.010295
     1478.000000       0.010387
     1478.100000       0.010471
     1478.200000       0.010556
     1478.300000       0.010643
     1478.400000       0.010736
     1478.500000       0.010841
     1478.600000       0.010958
     1478.700000       0.011090
     1478.800000       0.011240
     1478.900000       0.011406
     1479.000000       0.011592
     1479.100000       0.011789
     1479.200000       0.012003
     1479.300000       0.012224
     1479.400000       0.012451
     1479.500000       0.012678
     1479.600000       0.012900
     1479.700000       0.013116
     1479.800000       0.013319
     1479.900000       0.013512
     1480.000000       0.013693
     1480.100000       0.013861
     1480.200000       0.014019
     1480.300000       0.014167
     1480.400000       0.014313
     1480.500000       0.014455
     1480.600000       0.014600
     1480.700000       0.014753
     1480.800000       0.014918
     1480.900000       0.015100
     1481.000000       0.015300
     1481.100000       0.015516
     1481.200000       0.015754
     1481.300000       0.016007
     1481.400000       0.016279
     1481.500000       0.016560
     1481.600000       0.016852
     1481.700000       0.017148
     1481.800000       0.017443
     1481.900000       0.017736
     1482.000000       0.018018
     1482.100000       0.018290
     1482.200000       0.018546
     1482.300000       0.018787
     1482.400000       0.019015
     1482.500000       0.019231
     1482.600000       0.019443
     1482.700000       0.019651
     1482.800000       0.019861
     1482.900000       0.020079
     1483.000000       0.020305
     1483.100000       0.020550
     1483.200000       0.020810
     1483.300000       0.021094
     1483.400000       0.021405
     1483.500000       0.021737
     1483.600000       0.022095
     1483.700000       0.022469
     1483.800000       0.022862
     1483.900000       0.023264
     1484.000000       0.023670
     1484.100000       0.024077
     1484.200000       0.024476
     1484.300000       0.024870
     1484.400000       0.025251
     1484.500000       0.025621
     1484.600000       0.025979
     1484.700000       0.026326
     1484.800000       0.026666
     1484.900000       0.027000
     1485.000000       0.027336
     1485.100000       0.027678
     1485.200000       0.028031
     1485.300000       0.028403
     1485.400000       0.028795
     1485.500000       0.029211
     1485.600000       0.029655
     1485.700000       0.030123
     1485.800000       0.030618
     1485.900000       0.031135
     1486.000000       0.031674
     1486.100000       0.032228
     1486.200000       0.032794
     1486.300000       0.033366
     1486.400000       0.033934
     1486.500000       0.034498
     1486.600000       0.035049
     1486.700000       0.035589
     1486.800000       0.036118
     1486.900000       0.036637
     1487.000000       0.037152
     1487.100000       0.037664
     1487.200000       0.038182
     1487.300000       0.038711
     1487.400000       0.039251
     1487.500000       0.039815
     1487.600000       0.040402
     1487.700000       0.041019
     1487.800000       0.041669
     1487.900000       0.042352
     1488.000000       0.043072
     1488.100000       0.043819
     1488.200000       0.044594
     1488.300000       0.045389
     1488.400000       0.046193
     1488.500000       0.047007
     1488.600000       0.047820
     1488.700000       0.048632
     1488.800000       0.049440
     1488.900000       0.050240
     1489.000000       0.051036
     1489.100000       0.051827
     1489.200000       0.052612
     1489.300000       0.053383
     1489.400000       0.054154
     1489.500000       0.054953
     1489.600000       0.055771
     1489.700000       0.056622
     1489.800000       0.057507
     1489.900000       0.058426
     1490.000000       0.059383
     1490.100000       0.060373
     1490.200000       0.061396
     1490.300000       0.062452
     1490.400000       0.063541
     1490.500000       0.064659
     1490.600000       0.065790
     1490.700000       0.066935
     1490.800000       0.068079
     1490.900000       0.069221
     1491.000000       0.070358
     1491.100000       0.071486
     1491.200000       0.072605
     1491.300000       0.073714
     1491.400000       0.074821
     1491.500000       0.075934
     1491.600000       0.077054
     1491.700000       0.078201
     1491.800000       0.079374
     1491.900000       0.080585
     1492.000000       0.081837
     1492.100000       0.083132
     1492.200000       0.084478
     1492.300000       0.085871
     1492.400000       0.087314
     1492.500000       0.088803
     1492.600000       0.090328
     1492.700000       0.091892
     1492.800000       0.093479
     1492.900000       0.095084
     1493.000000       0.096700
     1493.100000       0.098328
     1493.200000       0.099966
     1493.300000       0.101617
     1493.400000       0.103281
     1493.500000       0.104955
     1493.600000       0.106639
     1493.700000       0.108349
     1493.800000       0.110086
     1493.900000       0.111855
     1494.000000       0.113676
     1494.100000       0.115545
     1494.200000       0.117483
     1494.300000       0.119481
     1494.400000       0.121544
     1494.500000       0.123666
     1494.600000       0.125825
     1494.700000       0.128027
     1494.800000       0.130265
     1494.900000       0.132545
     1495.000000       0.134839
     1495.100000       0.137137
     1495.200000       0.139441
     1495.300000       0.141752
     1495.400000       0.144067
     1495.500000       0.146383
     1495.600000       0.148700
     1495.700000       0.151030
     1495.800000       0.153371
     1495.900000       0.155743
     1496.000000       0.158155
     1496.100000       0.160601
     1496.200000       0.163108
     1496.300000       0.165667
     1496.400000       0.168306
     1496.500000       0.171021
     1496.600000       0.173820
     1496.700000       0.176691
     1496.800000       0.179636
     1496.900000       0.182668
     1497.000000       0.185763
     1497.100000       0.188908
     1497.200000       0.192104
     1497.300000       0.195336
     1497.400000       0.198605
     1497.500000       0.201889
     1497.600000       0.205192
     1497.700000       0.208507
     1497.800000       0.211846
     1497.900000       0.215208
     1498.000000       0.218596
     1498.100000       0.222015
     1498.200000       0.225479
     1498.300000       0.228983
     1498.400000       0.232533
     1498.500000       0.236148
     1498.600000       0.239821
     1498.700000       0.243565
     1498.800000       0.247379
     1498.900000       0.251276
     1499.000000       0.255250
     1499.100000       0.259303
     1499.200000       0.263434
     1499.300000       0.267625
     1499.400000       0.271880
     1499.500000       0.276177
     1499.600000       0.280516
     1499.700000       0.284880
     1499.800000       0.289262
     1499.900000       0.293658
     1500.000000       0.298076
     1500.100000       0.302511
     1500.200000       0.306967
     1500.300000       0.311445
     1500.400000       0.315946
     1500.500000       0.320467
     1500.600000       0.325006
     1500.700000       0.329580
     1500.800000       0.334188
     1500.900000       0.338855
     1501.000000       0.343575
     1501.100000       0.348362
     1501.200000       0.353219
     1501.300000       0.358140
     1501.400000       0.363127
     1501.500000       0.368179
     1501.600000       0.373298
     1501.700000       0.378478
     1501.800000       0.383714
     1501.900000       0.389003
     1502.000000       0.394316
     1502.100000       0.399666
     1502.200000       0.405034
     1502.300000       0.410425
     1502.400000       0.415824
     1502.500000       0.421225
     1502.600000       0.426627
     1502.700000       0.432023
     1502.800000       0.437416
     1502.900000       0.442814
     1503.000000       0.448213
     1503.100000       0.453621
     1503.200000       0.459037
     1503.300000       0.464470
     1503.400000       0.469928
     1503.500000       0.475413
     1503.600000       0.480935
     1503.700000       0.486494
     1503.800000       0.492098
     1503.900000       0.497748
     1504.000000       0.503439
     1504.100000       0.509173
     1504.200000       0.514945
     1504.300000       0.520770
     1504.400000       0.526646
     1504.500000       0.532587
     1504.600000       0.538582
     1504.700000       0.544605
     1504.800000       0.550661
     1504.900000       0.556722
     1505.000000       0.562779
     1505.100000       0.568827
     1505.200000       0.574846
     1505.300000       0.580864
     1505.400000       0.586882
     1505.500000       0.592900
     1505.600000       0.598900
     1505.700000       0.604882
     1505.800000       0.610837
     1505.900000       0.616752
     1506.000000       0.622639
     1506.100000       0.628505
     1506.200000       0.634346
     1506.300000       0.640159
     1506.400000       0.645939
     1506.500000       0.651682
     1506.600000       0.657404
     1506.700000       0.663097
     1506.800000       0.668751
     1506.900000       0.674375
     1507.000000       0.679973
     1507.100000       0.685545
     1507.200000       0.691095
     1507.300000       0.696621
     1507.400000       0.702127
     1507.500000       0.707589
     1507.600000       0.713007
     1507.700000       0.718361
     1507.800000       0.723663
     1507.900000       0.728922
     1508.000000       0.734137
     1508.100000       0.739315
     1508.200000       0.744459
     1508.300000       0.749564
     1508.400000       0.754628
     1508.500000       0.759652
     1508.600000       0.764617
     1508.700000       0.769527
     1508.800000       0.774345
     1508.900000       0.779093
     1509.000000       0.783778
     1509.100000       0.788396
     1509.200000       0.792957
     1509.300000       0.797467
     1509.400000       0.801929
     1509.500000       0.806346
     1509.600000       0.810720
     1509.700000       0.815057
     1509.800000       0.819345
     1509.900000       0.823578
     1510.000000       0.827723
     1510.100000       0.831808
     1510.200000       0.835840
     1510.300000       0.839833
     1510.400000       0.843798
     1510.500000       0.847735
     1510.600000       0.851642
     1510.700000       0.855515
     1510.800000       0.859358
     1510.900000       0.863181
     1511.000000       0.866959
     1511.100000       0.870669
     1511.200000       0.874327
     1511.300000       0.877938
     1511.400000       0.881503
     1511.500000       0.885019
     1511.600000       0.888487
     1511.700000       0.891901
     1511.800000       0.895250
     1511.900000       0.898546
     1512.000000       0.901767
     1512.100000       0.904928
     1512.200000       0.908026
     1512.300000       0.911119
     1512.400000       0.913994
     1512.500000       0.916528
     1512.600000       0.918841
     1512.700000       0.920972
     1512.800000       0.922942
     1512.900000       0.924833
     1513.000000       0.926659
     1513.100000       0.928514
     1513.200000       0.930524
     1513.300000       0.932545
     1513.400000       0.934445
     1513.500000       0.936282
     1513.600000       0.938140
     1513.700000       0.940011
     1513.800000       0.941827
     1513.900000       0.943553
     1514.000000       0.945240
     1514.100000       0.946909
     1514.200000       0.948546
     1514.300000       0.950132
     1514.400000       0.951683
     1514.500000       0.953192
     1514.600000       0.954651
     1514.700000       0.956101
     1514.800000       0.957558
     1514.900000       0.959012
     1515.000000       0.960460
     1515.100000       0.961902
     1515.200000       0.963334
     1515.300000       0.964756
     1515.400000       0.966172
     1515.500000       0.967587
     1515.600000       0.968985
     1515.700000       0.970346
     1515.800000       0.971679
     1515.900000       0.972983
     1516.000000       0.974269
     1516.100000       0.975519
     1516.200000       0.976733
     1516.300000       0.977911
     1516.400000       0.979038
     1516.500000       0.980123
     1516.600000       0.981168
     1516.700000       0.982180
     1516.800000       0.983071
     1516.900000       0.983850
     1517.000000       0.984585
     1517.100000       0.985319
     1517.200000       0.985994
     1517.300000       0.986541
     1517.400000       0.987009
     1517.500000       0.987444
     1517.600000       0.987840
     1517.700000       0.988186
     1517.800000       0.988469
     1517.900000       0.988695
     1518.000000       0.988826
     1518.100000       0.988921
     1518.200000       0.989005
     1518.300000       0.989082
     1518.400000       0.989099
     1518.500000       0.989020
     1518.600000       0.988914
     1518.700000       0.988818
     1518.800000       0.988703
     1518.900000       0.988543
     1519.000000       0.988331
     1519.100000       0.988102
     1519.200000       0.987853
     1519.300000       0.987577
     1519.400000       0.987260
     1519.500000       0.986913
     1519.600000       0.986523
     1519.700000       0.986101
     1519.800000       0.985647
     1519.900000       0.985173
     1520.000000       0.984672
     1520.100000       0.984132
     1520.200000       0.983568
     1520.300000       0.982993
     1520.400000       0.982404
     1520.500000       0.981803
     1520.600000       0.981189
     1520.700000       0.980577
     1520.800000       0.979970
     1520.900000       0.979367
     1521.000000       0.978768
     1521.100000       0.978173
     1521.200000       0.977587
     1521.300000       0.977009
     1521.400000       0.976446
     1521.500000       0.975901
     1521.600000       0.975366
     1521.700000       0.974845
     1521.800000       0.974343
     1521.900000       0.973854
     1522.000000       0.973374
     1522.100000       0.972907
     1522.200000       0.972457
     1522.300000       0.972004
     1522.400000       0.971531
     1522.500000       0.971050
     1522.600000       0.970569
     1522.700000       0.970086
     1522.800000       0.969589
     1522.900000       0.969078
     1523.000000       0.968554
     1523.100000       0.968010
     1523.200000       0.967456
     1523.300000       0.966896
     1523.400000       0.966329
     1523.500000       0.965751
     1523.600000       0.965156
     1523.700000       0.964563
     1523.800000       0.963981
     1523.900000       0.963407
     1524.000000       0.962841
     1524.100000       0.962277
     1524.200000       0.961716
     1524.300000       0.961159
     1524.400000       0.960609
     1524.500000       0.960066
     1524.600000       0.959532
     1524.700000       0.959009
     1524.800000       0.958496
     1524.900000       0.957991
     1525.000000       0.957493
     1525.100000       0.957005
     1525.200000       0.956524
     1525.300000       0.956052
     1525.400000       0.955593
     1525.500000       0.955143
     1525.600000       0.954696
     1525.700000       0.954250
     1525.800000       0.953817
     1525.900000       0.953401
     1526.000000       0.952995
     1526.100000       0.952588
     1526.200000       0.952162
     1526.300000       0.951730
     1526.400000       0.951287
     1526.500000       0.950836
     1526.600000       0.950378
     1526.700000       0.949914
     1526.800000       0.949440
     1526.900000       0.948957
     1527.000000       0.948461
     1527.100000       0.947949
     1527.200000       0.947433
     1527.300000       0.946915
     1527.400000       0.946392
     1527.500000       0.945852
     1527.600000       0.945303
     1527.700000       0.944759
     1527.800000       0.944210
     1527.900000       0.943660
     1528.000000       0.943107
     1528.100000       0.942558
     1528.200000       0.942021
     1528.300000       0.941502
     1528.400000       0.941008
     1528.500000       0.940529
     1528.600000       0.940069
     1528.700000       0.939635
     1528.800000       0.939220
     1528.900000       0.938820
     1529.000000       0.938439
     1529.100000       0.938091
     1529.200000       0.937776
     1529.300000       0.937472
     1529.400000       0.937179
     1529.500000       0.936892
     1529.600000       0.936616
     1529.700000       0.936346
     1529.800000       0.936068
     1529.900000       0.935780
     1530.000000       0.935480
     1530.100000       0.935152
     1530.200000       0.934802
     1530.300000       0.934428
     1530.400000       0.934028
     1530.500000       0.933585
     1530.600000       0.933066
     1530.700000       0.932513
     1530.800000       0.931895
     1530.900000       0.931232
     1531.000000       0.930514
     1531.100000       0.929747
     1531.200000       0.928978
     1531.300000       0.928202
     1531.400000       0.927430
     1531.500000       0.926673
     1531.600000       0.925926
     1531.700000       0.925184
     1531.800000       0.924452
     1531.900000       0.923755
     1532.000000       0.923080
     1532.100000       0.922471
     1532.200000       0.921970
     1532.300000       0.921502
     1532.400000       0.921060
     1532.500000       0.920640
     1532.600000       0.920355
     1532.700000       0.920168
     1532.800000       0.920007
     1532.900000       0.919891
     1533.000000       0.919826
     1533.100000       0.919792
     1533.200000       0.919788
     1533.300000       0.919789
     1533.400000       0.919813
     1533.500000       0.919848
     1533.600000       0.919878
     1533.700000       0.919915
     1533.800000       0.919969
     1533.900000       0.920049
     1534.000000       0.920147
     1534.100000       0.920270
     1534.200000       0.920410
     1534.300000       0.920553
     1534.400000       0.920705
     1534.500000       0.920876
     1534.600000       0.921076
     1534.700000       0.921291
     1534.800000       0.921522
     1534.900000       0.921758
     1535.000000       0.922010
     1535.100000       0.922279
     1535.200000       0.922575
     1535.300000       0.922887
     1535.400000       0.923210
     1535.500000       0.923542
     1535.600000       0.923882
     1535.700000       0.924230
     1535.800000       0.924583
     1535.900000       0.924897
     1536.000000       0.925169
     1536.100000       0.925448
     1536.200000       0.925762
     1536.300000       0.926093
     1536.400000       0.926432
     1536.500000       0.926780
     1536.600000       0.927132
     1536.700000       0.927497
     1536.800000       0.927887
     1536.900000       0.928293
     1537.000000       0.928702
     1537.100000       0.929077
     1537.200000       0.929451
     1537.300000       0.929832
     1537.400000       0.930218
     1537.500000       0.930599
     1537.600000       0.930967
     1537.700000       0.931328
     1537.800000       0.931688
     1537.900000       0.932044
     1538.000000       0.932405
     1538.100000       0.932770
     1538.200000       0.933143
     1538.300000       0.933531
     1538.400000       0.933932
     1538.500000       0.934348
     1538.600000       0.934783
     1538.700000       0.935226
     1538.800000       0.935676
     1538.900000       0.936130
     1539.000000       0.936600
     1539.100000       0.937099
     1539.200000       0.937647
     1539.300000       0.938262
     1539.400000       0.938904
     1539.500000       0.939580
     1539.600000       0.940282
     1539.700000       0.941005
     1539.800000       0.941743
     1539.900000       0.942496
     1540.000000       0.943271
     1540.100000       0.944053
     1540.200000       0.944828
     1540.300000       0.945598
     1540.400000       0.946352
     1540.500000       0.947092
     1540.600000       0.947816
     1540.700000       0.948524
     1540.800000       0.949214
     1540.900000       0.949879
     1541.000000       0.950540
     1541.100000       0.951220
     1541.200000       0.951929
     1541.300000       0.952660
     1541.400000       0.953425
     1541.500000       0.954221
     1541.600000       0.955044
     1541.700000       0.955894
     1541.800000       0.956788
     1541.900000       0.957734
     1542.000000       0.958709
     1542.100000       0.959710
     1542.200000       0.960736
     1542.300000       0.961757
     1542.400000       0.962777
     1542.500000       0.963778
     1542.600000       0.964756
     1542.700000       0.965707
     1542.800000       0.966605
     1542.900000       0.967468
     1543.000000       0.968284
     1543.100000       0.969054
     1543.200000       0.969776
     1543.300000       0.970443
     1543.400000       0.971066
     1543.500000       0.971639
     1543.600000       0.972160
     1543.700000       0.972627
     1543.800000       0.973049
     1543.900000       0.973437
     1544.000000       0.973787
     1544.100000       0.974107
     1544.200000       0.974414
     1544.300000       0.974707
     1544.400000       0.974992
     1544.500000       0.975275
     1544.600000       0.975550
     1544.700000       0.975812
     1544.800000       0.976055
     1544.900000       0.976288
     1545.000000       0.976519
     1545.100000       0.976737
     1545.200000       0.976934
     1545.300000       0.977117
     1545.400000       0.977291
     1545.500000       0.977456
     1545.600000       0.977615
     1545.700000       0.977768
     1545.800000       0.977897
     1545.900000       0.977986
     1546.000000       0.978055
     1546.100000       0.978130
     1546.200000       0.978214
     1546.300000       0.978294
     1546.400000       0.978362
     1546.500000       0.978422
     1546.600000       0.978477
     1546.700000       0.978524
     1546.800000       0.978560
     1546.900000       0.978589
     1547.000000       0.978607
     1547.100000       0.978603
     1547.200000       0.978583
     1547.300000       0.978558
     1547.400000       0.978522
     1547.500000       0.978484
     1547.600000       0.978451
     1547.700000       0.978418
     1547.800000       0.978380
     1547.900000       0.978340
     1548.000000       0.978355
     1548.100000       0.978440
     1548.200000       0.978543
     1548.300000       0.978615
     1548.400000       0.978692
     1548.500000       0.978791
     1548.600000       0.978934
     1548.700000       0.979118
     1548.800000       0.979348
     1548.900000       0.979622
     1549.000000       0.979932
     1549.100000       0.980292
     1549.200000       0.980684
     1549.300000       0.981112
     1549.400000       0.981569
     1549.500000       0.982040
     1549.600000       0.982528
     1549.700000       0.983022
     1549.800000       0.983526
     1549.900000       0.984027
     1550.000000       0.984519
     1550.100000       0.984999
     1550.200000       0.985429
     1550.300000       0.985800
     1550.400000       0.986157
     1550.500000       0.986505
     1550.600000       0.986827
     1550.700000       0.987137
     1550.800000       0.987444
     1550.900000       0.987748
     1551.000000       0.988046
     1551.100000       0.988348
     1551.200000       0.988659
     1551.300000       0.988979
     1551.400000       0.989315
     1551.500000       0.989667
     1551.600000       0.990028
     1551.700000       0.990387
     1551.800000       0.990764
     1551.900000       0.991188
     1552.000000       0.991657
     1552.100000       0.992128
     1552.200000       0.992597
     1552.300000       0.993072
     1552.400000       0.993585
     1552.500000       0.994118
     1552.600000       0.994656
     1552.700000       0.995195
     1552.800000       0.995730
     1552.900000       0.996244
     1553.000000       0.996738
     1553.100000       0.997205
     1553.200000       0.997649
     1553.300000       0.998039
     1553.400000       0.998386
     1553.500000       0.998676
     1553.600000       0.998901
     1553.700000       0.999084
     1553.800000       0.999196
     1553.900000       0.999278
     1554.000000       0.999314
     1554.100000       0.999295
     1554.200000       0.999252
     1554.300000       0.999202
     1554.400000       0.999130
     1554.500000       0.999046
     1554.600000       0.998951
     1554.700000       0.998865
     1554.800000       0.998808
     1554.900000       0.998757
     1555.000000       0.998729
     1555.100000       0.998778
     1555.200000       0.998853
     1555.300000       0.998939
     1555.400000       0.999049
     1555.500000       0.999171
     1555.600000       0.999312
     1555.700000       0.999458
     1555.800000       0.999620
     1555.900000       0.999769
     1556.000000       0.999865
     1556.100000       0.999937
     1556.200000       0.999982
     1556.300000       1.000000
     1556.400000       0.999995
     1556.500000       0.999989
     1556.600000       0.999981
     1556.700000       0.999959
     1556.800000       0.999864
     1556.900000       0.999743
     1557.000000       0.999650
     1557.100000       0.999553
     1557.200000       0.999432
     1557.300000       0.999286
     1557.400000       0.999142
     1557.500000       0.999011
     1557.600000       0.998885
     1557.700000       0.998765
     1557.800000       0.998649
     1557.900000       0.998534
     1558.000000       0.998421
     1558.100000       0.998306
     1558.200000       0.998190
     1558.300000       0.998088
     1558.400000       0.998019
     1558.500000       0.997974
     1558.600000       0.997942
     1558.700000       0.997919
     1558.800000       0.997902
     1558.900000       0.997889
     1559.000000       0.997873
     1559.100000       0.997849
     1559.200000       0.997802
     1559.300000       0.997739
     1559.400000       0.997649
     1559.500000       0.997539
     1559.600000       0.997406
     1559.700000       0.997237
     1559.800000       0.997032
     1559.900000       0.996783
     1560.000000       0.996481
     1560.100000       0.996143
     1560.200000       0.995761
     1560.300000       0.995372
     1560.400000       0.994999
     1560.500000       0.994626
     1560.600000       0.994223
     1560.700000       0.993789
     1560.800000       0.993351
     1560.900000       0.992926
     1561.000000       0.992492
     1561.100000       0.992011
     1561.200000       0.991430
     1561.300000       0.990813
     1561.400000       0.990168
     1561.500000       0.989509
     1561.600000       0.988717
     1561.700000       0.987857
     1561.800000       0.986954
     1561.900000       0.985991
     1562.000000       0.985013
     1562.100000       0.984057
     1562.200000       0.983094
     1562.300000       0.982159
     1562.400000       0.981250
     1562.500000       0.980370
     1562.600000       0.979528
     1562.700000       0.978709
     1562.800000       0.977880
     1562.900000       0.977042
     1563.000000       0.976253
     1563.100000       0.975522
     1563.200000       0.974841
     1563.300000       0.974247
     1563.400000       0.973730
     1563.500000       0.973245
     1563.600000       0.972791
     1563.700000       0.972343
     1563.800000       0.971917
     1563.900000       0.971510
     1564.000000       0.971127
     1564.100000       0.970761
     1564.200000       0.970411
     1564.300000       0.970084
     1564.400000       0.969780
     1564.500000       0.969514
     1564.600000       0.969280
     1564.700000       0.969071
     1564.800000       0.968877
     1564.900000       0.968708
     1565.000000       0.968587
     1565.100000       0.968494
     1565.200000       0.968425
     1565.300000       0.968377
     1565.400000       0.968336
     1565.500000       0.968291
     1565.600000       0.968242
     1565.700000       0.968195
     1565.800000       0.968152
     1565.900000       0.968106
     1566.000000       0.968039
     1566.100000       0.967960
     1566.200000       0.967851
     1566.300000       0.967681
     1566.400000       0.967470
     1566.500000       0.967233
     1566.600000       0.966955
     1566.700000       0.966640
     1566.800000       0.966273
     1566.900000       0.965880
     1567.000000       0.965478
     1567.100000       0.965060
     1567.200000       0.964643
     1567.300000       0.964223
     1567.400000       0.963801
     1567.500000       0.963365
     1567.600000       0.962941
     1567.700000       0.962581
     1567.800000       0.962249
     1567.900000       0.961925
     1568.000000       0.961620
     1568.100000       0.961332
     1568.200000       0.961082
     1568.300000       0.960858
     1568.400000       0.960636
     1568.500000       0.960414
     1568.600000       0.960183
     1568.700000       0.959929
     1568.800000       0.959654
     1568.900000       0.959355
     1569.000000       0.959028
     1569.100000       0.958671
     1569.200000       0.958279
     1569.300000       0.957847
     1569.400000       0.957363
     1569.500000       0.956804
     1569.600000       0.956213
     1569.700000       0.955620
     1569.800000       0.954998
     1569.900000       0.954301
     1570.000000       0.953541
     1570.100000       0.952790
     1570.200000       0.952070
     1570.300000       0.951397
     1570.400000       0.950825
     1570.500000       0.950287
     1570.600000       0.949775
     1570.700000       0.949295
     1570.800000       0.948852
     1570.900000       0.948466
     1571.000000       0.948113
     1571.100000       0.947854
     1571.200000       0.947676
     1571.300000       0.947546
     1571.400000       0.947469
     1571.500000       0.947413
     1571.600000       0.947395
     1571.700000       0.947448
     1571.800000       0.947562
     1571.900000       0.947692
     1572.000000       0.947823
     1572.100000       0.947948
     1572.200000       0.948060
     1572.300000       0.948131
     1572.400000       0.948133
     1572.500000       0.948123
     1572.600000       0.948066
     1572.700000       0.947964
     1572.800000       0.947856
     1572.900000       0.947717
     1573.000000       0.947552
     1573.100000       0.947387
     1573.200000       0.947220
     1573.300000       0.947058
     1573.400000       0.946895
     1573.500000       0.946743
     1573.600000       0.946666
     1573.700000       0.946648
     1573.800000       0.946643
     1573.900000       0.946693
     1574.000000       0.946829
     1574.100000       0.946995
     1574.200000       0.947233
     1574.300000       0.947535
     1574.400000       0.947904
     1574.500000       0.948317
     1574.600000       0.948745
     1574.700000       0.949191
     1574.800000       0.949633
     1574.900000       0.950075
     1575.000000       0.950525
     1575.100000       0.950970
     1575.200000       0.951408
     1575.300000       0.951812
     1575.400000       0.952171
     1575.500000       0.952501
     1575.600000       0.952814
     1575.700000       0.953107
     1575.800000       0.953395
     1575.900000       0.953681
     1576.000000       0.953964
     1576.100000       0.954250
     1576.200000       0.954537
     1576.300000       0.954831
     1576.400000       0.955145
     1576.500000       0.955487
     1576.600000       0.955864
     1576.700000       0.956276
     1576.800000       0.956710
     1576.900000       0.957172
     1577.000000       0.957633
     1577.100000       0.958124
     1577.200000       0.958639
     1577.300000       0.959165
     1577.400000       0.959700
     1577.500000       0.960235
     1577.600000       0.960774
     1577.700000       0.961321
     1577.800000       0.961860
     1577.900000       0.962393
     1578.000000       0.962911
     1578.100000       0.963402
     1578.200000       0.963871
     1578.300000       0.964303
     1578.400000       0.964697
     1578.500000       0.965061
     1578.600000       0.965390
     1578.700000       0.965693
     1578.800000       0.965942
     1578.900000       0.966141
     1579.000000       0.966304
     1579.100000       0.966424
     1579.200000       0.966497
     1579.300000       0.966538
     1579.400000       0.966556
     1579.500000       0.966550
     1579.600000       0.966528
     1579.700000       0.966491
     1579.800000       0.966458
     1579.900000       0.966432
     1580.000000       0.966406
     1580.100000       0.966372
     1580.200000       0.966329
     1580.300000       0.966274
     1580.400000       0.966195
     1580.500000       0.966104
     1580.600000       0.966012
     1580.700000       0.965916
     1580.800000       0.965834
     1580.900000       0.965787
     1581.000000       0.965753
     1581.100000       0.965729
     1581.200000       0.965710
     1581.300000       0.965700
     1581.400000       0.965702
     1581.500000       0.965711
     1581.600000       0.965729
     1581.700000       0.965760
     1581.800000       0.965806
     1581.900000       0.965864
     1582.000000       0.965933
     1582.100000       0.966017
     1582.200000       0.966117
     1582.300000       0.966215
     1582.400000       0.966313
     1582.500000       0.966400
     1582.600000       0.966468
     1582.700000       0.966526
     1582.800000       0.966542
     1582.900000       0.966500
     1583.000000       0.966425
     1583.100000       0.966311
     1583.200000       0.966177
     1583.300000       0.966018
     1583.400000       0.965820
     1583.500000       0.965593
     1583.600000       0.965336
     1583.700000       0.965071
     1583.800000       0.964799
     1583.900000       0.964520
     1584.000000       0.964241
     1584.100000       0.963977
     1584.200000       0.963724
     1584.300000       0.963473
     1584.400000       0.963217
     1584.500000       0.962970
     1584.600000       0.962747
     1584.700000       0.962542
     1584.800000       0.962344
     1584.900000       0.962157
     1585.000000       0.961967
     1585.100000       0.961750
     1585.200000       0.961510
     1585.300000       0.961258
     1585.400000       0.961002
     1585.500000       0.960733
     1585.600000       0.960429
     1585.700000       0.960085
     1585.800000       0.959697
     1585.900000       0.959257
     1586.000000       0.958790
     1586.100000       0.958322
     1586.200000       0.957847
     1586.300000       0.957364
     1586.400000       0.956866
     1586.500000       0.956372
     1586.600000       0.955909
     1586.700000       0.955468
     1586.800000       0.955065
     1586.900000       0.954707
     1587.000000       0.954381
     1587.100000       0.954090
     1587.200000       0.953833
     1587.300000       0.953596
     1587.400000       0.953398
     1587.500000       0.953225
     1587.600000       0.953094
     1587.700000       0.952992
     1587.800000       0.952904
     1587.900000       0.952823
     1588.000000       0.952751
     1588.100000       0.952683
     1588.200000       0.952622
     1588.300000       0.952550
     1588.400000       0.952437
     1588.500000       0.952293
     1588.600000       0.952121
     1588.700000       0.951927
     1588.800000       0.951709
     1588.900000       0.951460
     1589.000000       0.951177
     1589.100000       0.950865
     1589.200000       0.950516
     1589.300000       0.950137
     1589.400000       0.949731
     1589.500000       0.949296
     1589.600000       0.948839
     1589.700000       0.948364
     1589.800000       0.947869
     1589.900000       0.947343
     1590.000000       0.946789
     1590.100000       0.946224
     1590.200000       0.945640
     1590.300000       0.945045
     1590.400000       0.944438
     1590.500000       0.943819
     1590.600000       0.943189
     1590.700000       0.942541
     1590.800000       0.941887
     1590.900000       0.941236
     1591.000000       0.940593
     1591.100000       0.939964
     1591.200000       0.939350
     1591.300000       0.938751
     1591.400000       0.938175
     1591.500000       0.937618
     1591.600000       0.937091
     1591.700000       0.936610
     1591.800000       0.936167
     1591.900000       0.935774
     1592.000000       0.935417
     1592.100000       0.935101
     1592.200000       0.934827
     1592.300000       0.934588
     1592.400000       0.934393
     1592.500000       0.934227
     1592.600000       0.934085
     1592.700000       0.933967
     1592.800000       0.933865
     1592.900000       0.933778
     1593.000000       0.933715
     1593.100000       0.933667
     1593.200000       0.933640
     1593.300000       0.933620
     1593.400000       0.933615
     1593.500000       0.933615
     1593.600000       0.933615
     1593.700000       0.933628
     1593.800000       0.933671
     1593.900000       0.933728
     1594.000000       0.933813
     1594.100000       0.933915
     1594.200000       0.934037
     1594.300000       0.934185
     1594.400000       0.934356
     1594.500000       0.934564
     1594.600000       0.934791
     1594.700000       0.935030
     1594.800000       0.935277
     1594.900000       0.935519
     1595.000000       0.935742
     1595.100000       0.935956
     1595.200000       0.936168
     1595.300000       0.936374
     1595.400000       0.936549
     1595.500000       0.936687
     1595.600000       0.936794
     1595.700000       0.936815
     1595.800000       0.936804
     1595.900000       0.936783
     1596.000000       0.936715
     1596.100000       0.936594
     1596.200000       0.936422
     1596.300000       0.936186
     1596.400000       0.935912
     1596.500000       0.935618
     1596.600000       0.935291
     1596.700000       0.934953
     1596.800000       0.934604
     1596.900000       0.934247
     1597.000000       0.933877
     1597.100000       0.933495
     1597.200000       0.933113
     1597.300000       0.932738
     1597.400000       0.932361
     1597.500000       0.931980
     1597.600000       0.931606
     1597.700000       0.931251
     1597.800000       0.930925
     1597.900000       0.930612
     1598.000000       0.930283
     1598.100000       0.929942
     1598.200000       0.929588
     1598.300000       0.929203
     1598.400000       0.928789
     1598.500000       0.928357
     1598.600000       0.927904
     1598.700000       0.927444
     1598.800000       0.926983
     1598.900000       0.926516
     1599.000000       0.926031
     1599.100000       0.925508
     1599.200000       0.924970
     1599.300000       0.924433
     1599.400000       0.923892
     1599.500000       0.923360
     1599.600000       0.922838
     1599.700000       0.922330
     1599.800000       0.921849
     1599.900000       0.921381
     1600.000000       0.920960
     1600.100000       0.920598
     1600.200000       0.920274
     1600.300000       0.919974
     1600.400000       0.919699
     1600.500000       0.919463
     1600.600000       0.919263
     1600.700000       0.919092
     1600.800000       0.918955
     1600.900000       0.918851
     1601.000000       0.918755
     1601.100000       0.918647
     1601.200000       0.918539
     1601.300000       0.918440
     1601.400000       0.918359
     1601.500000       0.918281
     1601.600000       0.918199
     1601.700000       0.918114
     1601.800000       0.918021
     1601.900000       0.917915
     1602.000000       0.917806
     1602.100000       0.917704
     1602.200000       0.917612
     1602.300000       0.917525
     1602.400000       0.917443
     1602.500000       0.917365
     1602.600000       0.917291
     1602.700000       0.917243
     1602.800000       0.917215
     1602.900000       0.917213
     1603.000000       0.917212
     1603.100000       0.917211
     1603.200000       0.917210
     1603.300000       0.917208
     1603.400000       0.917190
     1603.500000       0.917167
     1603.600000       0.917140
     1603.700000       0.917109
     1603.800000       0.917068
     1603.900000       0.917008
     1604.000000       0.916911
     1604.100000       0.916794
     1604.200000       0.916657
     1604.300000       0.916510
     1604.400000       0.916361
     1604.500000       0.916213
     1604.600000       0.916060
     1604.700000       0.915892
     1604.800000       0.915715
     1604.900000       0.915544
     1605.000000       0.915367
     1605.100000       0.915218
     1605.200000       0.915139
     1605.300000       0.915087
     1605.400000       0.915049
     1605.500000       0.915023
     1605.600000       0.915032
     1605.700000       0.915063
     1605.800000       0.915157
     1605.900000       0.915274
     1606.000000       0.915391
     1606.100000       0.915520
     1606.200000       0.915639
     1606.300000       0.915751
     1606.400000       0.915855
     1606.500000       0.915944
     1606.600000       0.916025
     1606.700000       0.916072
     1606.800000       0.916096
     1606.900000       0.916110
     1607.000000       0.916085
     1607.100000       0.916013
     1607.200000       0.915918
     1607.300000       0.915806
     1607.400000       0.915674
     1607.500000       0.915533
     1607.600000       0.915378
     1607.700000       0.915215
     1607.800000       0.915050
     1607.900000       0.914893
     1608.000000       0.914759
     1608.100000       0.914640
     1608.200000       0.914540
     1608.300000       0.914463
     1608.400000       0.914424
     1608.500000       0.914409
     1608.600000       0.914432
     1608.700000       0.914476
     1608.800000       0.914545
     1608.900000       0.914630
     1609.000000       0.914726
     1609.100000       0.914837
     1609.200000       0.914966
     1609.300000       0.915115
     1609.400000       0.915276
     1609.500000       0.915424
     1609.600000       0.915538
     1609.700000       0.915634
     1609.800000       0.915718
     1609.900000       0.915790
     1610.000000       0.915858
     1610.100000       0.915922
     1610.200000       0.915983
     1610.300000       0.916030
     1610.400000       0.916044
     1610.500000       0.916052
     1610.600000       0.916051
     1610.700000       0.916035
     1610.800000       0.916020
     1610.900000       0.916031
     1611.000000       0.916054
     1611.100000       0.916068
     1611.200000       0.916046
     1611.300000       0.916009
     1611.400000       0.915977
     1611.500000       0.915953
     1611.600000       0.915926
     1611.700000       0.915888
     1611.800000       0.915843
     1611.900000       0.915799
     1612.000000       0.915752
     1612.100000       0.915710
     1612.200000       0.915673
     1612.300000       0.915629
     1612.400000       0.915593
     1612.500000       0.915563
     1612.600000       0.915542
     1612.700000       0.915547
     1612.800000       0.915591
     1612.900000       0.915660
     1613.000000       0.915810
     1613.100000       0.916059
     1613.200000       0.916337
     1613.300000       0.916677
     1613.400000       0.917063
     1613.500000       0.917514
     1613.600000       0.918031
     1613.700000       0.918607
     1613.800000       0.919247
     1613.900000       0.919930
     1614.000000       0.920647
     1614.100000       0.921407
     1614.200000       0.922185
     1614.300000       0.922976
     1614.400000       0.923773
     1614.500000       0.924565
     1614.600000       0.925353
     1614.700000       0.926120
     1614.800000       0.926846
     1614.900000       0.927543
     1615.000000       0.928216
     1615.100000       0.928872
     1615.200000       0.929500
     1615.300000       0.930085
     1615.400000       0.930627
     1615.500000       0.931153
     1615.600000       0.931647
     1615.700000       0.932123
     1615.800000       0.932589
     1615.900000       0.933044
     1616.000000       0.933494
     1616.100000       0.933940
     1616.200000       0.934382
     1616.300000       0.934828
     1616.400000       0.935280
     1616.500000       0.935738
     1616.600000       0.936214
     1616.700000       0.936709
     1616.800000       0.937208
     1616.900000       0.937704
     1617.000000       0.938201
     1617.100000       0.938699
     1617.200000       0.939200
     1617.300000       0.939698
     1617.400000       0.940183
     1617.500000       0.940658
     1617.600000       0.941121
     1617.700000       0.941565
     1617.800000       0.941997
     1617.900000       0.942415
     1618.000000       0.942816
     1618.100000       0.943201
     1618.200000       0.943560
     1618.300000       0.943902
     1618.400000       0.944228
     1618.500000       0.944532
     1618.600000       0.944830
     1618.700000       0.945145
     1618.800000       0.945470
     1618.900000       0.945794
     1619.000000       0.946112
     1619.100000       0.946425
     1619.200000       0.946729
     1619.300000       0.947025
     1619.400000       0.947314
     1619.500000       0.947598
     1619.600000       0.947876
     1619.700000       0.948142
     1619.800000       0.948391
     1619.900000       0.948627
     1620.000000       0.948836
     1620.100000       0.949014
     1620.200000       0.949177
     1620.300000       0.949330
     1620.400000       0.949474
     1620.500000       0.949562
     1620.600000       0.949605
     1620.700000       0.949637
     1620.800000       0.949672
     1620.900000       0.949709
     1621.000000       0.949762
     1621.100000       0.949826
     1621.200000       0.949899
     1621.300000       0.949983
     1621.400000       0.950079
     1621.500000       0.950193
     1621.600000       0.950335
     1621.700000       0.950517
     1621.800000       0.950721
     1621.900000       0.950962
     1622.000000       0.951223
     1622.100000       0.951482
     1622.200000       0.951741
     1622.300000       0.952002
     1622.400000       0.952272
     1622.500000       0.952549
     1622.600000       0.952808
     1622.700000       0.953050
     1622.800000       0.953272
     1622.900000       0.953463
     1623.000000       0.953630
     1623.100000       0.953780
     1623.200000       0.953916
     1623.300000       0.954041
     1623.400000       0.954151
     1623.500000       0.954246
     1623.600000       0.954334
     1623.700000       0.954422
     1623.800000       0.954510
     1623.900000       0.954604
     1624.000000       0.954710
     1624.100000       0.954823
     1624.200000       0.954941
     1624.300000       0.955060
     1624.400000       0.955189
     1624.500000       0.955348
     1624.600000       0.955529
     1624.700000       0.955712
     1624.800000       0.955893
     1624.900000       0.956073
     1625.000000       0.956252
     1625.100000       0.956430
     1625.200000       0.956609
     1625.300000       0.956788
     1625.400000       0.956951
     1625.500000       0.957077
     1625.600000       0.957170
     1625.700000       0.957217
     1625.800000       0.957217
     1625.900000       0.957205
     1626.000000       0.957188
     1626.100000       0.957173
     1626.200000       0.957156
     1626.300000       0.957123
     1626.400000       0.956998
     1626.500000       0.956818
     1626.600000       0.956660
     1626.700000       0.956506
     1626.800000       0.956323
     1626.900000       0.956128
     1627.000000       0.955924
     1627.100000       0.955713
     1627.200000       0.955490
     1627.300000       0.955267
     1627.400000       0.955064
     1627.500000       0.954871
     1627.600000       0.954663
     1627.700000       0.954445
     1627.800000       0.954222
     1627.900000       0.953988
     1628.000000       0.953734
     1628.100000       0.953481
     1628.200000       0.953246
     1628.300000       0.953022
     1628.400000       0.952808
     1628.500000       0.952607
     1628.600000       0.952415
     1628.700000       0.952222
     1628.800000       0.952026
     1628.900000       0.951848
     1629.000000       0.951702
     1629.100000       0.951534
     1629.200000       0.951350
     1629.300000       0.951152
     1629.400000       0.950943
     1629.500000       0.950728
     1629.600000       0.950502
     1629.700000       0.950262
     1629.800000       0.950006
     1629.900000       0.949741
     1630.000000       0.949464
     1630.100000       0.949171
     1630.200000       0.948865
     1630.300000       0.948548
     1630.400000       0.948219
     1630.500000       0.947878
     1630.600000       0.947526
     1630.700000       0.947160
     1630.800000       0.946774
     1630.900000       0.946356
     1631.000000       0.945917
     1631.100000       0.945474
     1631.200000       0.945022
     1631.300000       0.944551
     1631.400000       0.944079
     1631.500000       0.943604
     1631.600000       0.943124
     1631.700000       0.942623
     1631.800000       0.942113
     1631.900000       0.941605
     1632.000000       0.941097
     1632.100000       0.940588
     1632.200000       0.940076
     1632.300000       0.939560
     1632.400000       0.939043
     1632.500000       0.938524
     1632.600000       0.938003
     1632.700000       0.937486
     1632.800000       0.936974
     1632.900000       0.936457
     1633.000000       0.935932
     1633.100000       0.935400
     1633.200000       0.934862
     1633.300000       0.934303
     1633.400000       0.933720
     1633.500000       0.933135
     1633.600000       0.932545
     1633.700000       0.931954
     1633.800000       0.931365
     1633.900000       0.930776
     1634.000000       0.930182
     1634.100000       0.929581
     1634.200000       0.928994
     1634.300000       0.928427
     1634.400000       0.927875
     1634.500000       0.927339
     1634.600000       0.926815
     1634.700000       0.926305
     1634.800000       0.925822
     1634.900000       0.925370
     1635.000000       0.924940
     1635.100000       0.924529
     1635.200000       0.924138
     1635.300000       0.923758
     1635.400000       0.923390
     1635.500000       0.923065
     1635.600000       0.922778
     1635.700000       0.922516
     1635.800000       0.922261
     1635.900000       0.922010
     1636.000000       0.921767
     1636.100000       0.921508
     1636.200000       0.921202
     1636.300000       0.920859
     1636.400000       0.920510
     1636.500000       0.920165
     1636.600000       0.919808
     1636.700000       0.919409
     1636.800000       0.918954
     1636.900000       0.918468
     1637.000000       0.917961
     1637.100000       0.917426
     1637.200000       0.916879
     1637.300000       0.916323
     1637.400000       0.915769
     1637.500000       0.915226
     1637.600000       0.914697
     1637.700000       0.914175
     1637.800000       0.913656
     1637.900000       0.913140
     1638.000000       0.912659
     1638.100000       0.912247
     1638.200000       0.911858
     1638.300000       0.911453
     1638.400000       0.911030
     1638.500000       0.910600
     1638.600000       0.910173
     1638.700000       0.909751
     1638.800000       0.909314
     1638.900000       0.908848
     1639.000000       0.908361
     1639.100000       0.907854
     1639.200000       0.907316
     1639.300000       0.906748
     1639.400000       0.906139
     1639.500000       0.905494
     1639.600000       0.904829
     1639.700000       0.904142
     1639.800000       0.903438
     1639.900000       0.902745
     1640.000000       0.902078
     1640.100000       0.901435
     1640.200000       0.900832
     1640.300000       0.900287
     1640.400000       0.899781
     1640.500000       0.899316
     1640.600000       0.898882
     1640.700000       0.898485
     1640.800000       0.898167
     1640.900000       0.897890
     1641.000000       0.897665
     1641.100000       0.897487
     1641.200000       0.897328
     1641.300000       0.897181
     1641.400000       0.897038
     1641.500000       0.896889
     1641.600000       0.896731
     1641.700000       0.896563
     1641.800000       0.896374
     1641.900000       0.896162
     1642.000000       0.895916
     1642.100000       0.895601
     1642.200000       0.895263
     1642.300000       0.894925
     1642.400000       0.894596
     1642.500000       0.894263
     1642.600000       0.893922
     1642.700000       0.893572
     1642.800000       0.893215
     1642.900000       0.892850
     1643.000000       0.892490
     1643.100000       0.892149
     1643.200000       0.891845
     1643.300000       0.891558
     1643.400000       0.891286
     1643.500000       0.891031
     1643.600000       0.890786
     1643.700000       0.890537
     1643.800000       0.890286
     1643.900000       0.890037
     1644.000000       0.889795
     1644.100000       0.889558
     1644.200000       0.889307
     1644.300000       0.889009
     1644.400000       0.888694
     1644.500000       0.888379
     1644.600000       0.888063
     1644.700000       0.887750
     1644.800000       0.887437
     1644.900000       0.887111
     1645.000000       0.886780
     1645.100000       0.886447
     1645.200000       0.886120
     1645.300000       0.885797
     1645.400000       0.885475
     1645.500000       0.885160
     1645.600000       0.884864
     1645.700000       0.884582
     1645.800000       0.884317
     1645.900000       0.884067
     1646.000000       0.883831
     1646.100000       0.883634
     1646.200000       0.883476
     1646.300000       0.883341
     1646.400000       0.883219
     1646.500000       0.883125
     1646.600000       0.883063
     1646.700000       0.883061
     1646.800000       0.883074
     1646.900000       0.883091
     1647.000000       0.883111
     1647.100000       0.883130
     1647.200000       0.883150
     1647.300000       0.883171
     1647.400000       0.883199
     1647.500000       0.883228
     1647.600000       0.883256
     1647.700000       0.883286
     1647.800000       0.883319
     1647.900000       0.883354
     1648.000000       0.883397
     1648.100000       0.883452
     1648.200000       0.883521
     1648.300000       0.883607
     1648.400000       0.883721
     1648.500000       0.883856
     1648.600000       0.884013
     1648.700000       0.884209
     1648.800000       0.884426
     1648.900000       0.884669
     1649.000000       0.884922
     1649.100000       0.885170
     1649.200000       0.885413
     1649.300000       0.885651
     1649.400000       0.885887
     1649.500000       0.886120
     1649.600000       0.886358
     1649.700000       0.886607
     1649.800000       0.886861
     1649.900000       0.887092
     1650.000000       0.887292
     1650.100000       0.887475
     1650.200000       0.887654
     1650.300000       0.887831
     1650.400000       0.888002
     1650.500000       0.888169
     1650.600000       0.888335
     1650.700000       0.888488
     1650.800000       0.888631
     1650.900000       0.888817
     1651.000000       0.889043
     1651.100000       0.889326
     1651.200000       0.889658
     1651.300000       0.890025
     1651.400000       0.890450
     1651.500000       0.890902
     1651.600000       0.891387
     1651.700000       0.891888
     1651.800000       0.892400
     1651.900000       0.892923
     1652.000000       0.893441
     1652.100000       0.893917
     1652.200000       0.894348
     1652.300000       0.894756
     1652.400000       0.895159
     1652.500000       0.895563
     1652.600000       0.895920
     1652.700000       0.896183
     1652.800000       0.896436
     1652.900000       0.896700
     1653.000000       0.896991
     1653.100000       0.897284
     1653.200000       0.897594
     1653.300000       0.897925
     1653.400000       0.898271
     1653.500000       0.898633
     1653.600000       0.899013
     1653.700000       0.899407
     1653.800000       0.899828
     1653.900000       0.900271
     1654.000000       0.900753
     1654.100000       0.901304
     1654.200000       0.901879
     1654.300000       0.902424
     1654.400000       0.902942
     1654.500000       0.903456
     1654.600000       0.903980
     1654.700000       0.904522
     1654.800000       0.905065
     1654.900000       0.905588
     1655.000000       0.906098
     1655.100000       0.906597
     1655.200000       0.907077
     1655.300000       0.907544
     1655.400000       0.907982
     1655.500000       0.908400
     1655.600000       0.908792
     1655.700000       0.909150
     1655.800000       0.909483
     1655.900000       0.909794
     1656.000000       0.910076
     1656.100000       0.910341
     1656.200000       0.910607
     1656.300000       0.910876
     1656.400000       0.911143
     1656.500000       0.911402
     1656.600000       0.911654
     1656.700000       0.911905
     1656.800000       0.912174
     1656.900000       0.912458
     1657.000000       0.912746
     1657.100000       0.913035
     1657.200000       0.913327
     1657.300000       0.913621
     1657.400000       0.913943
     1657.500000       0.914295
     1657.600000       0.914679
     1657.700000       0.915102
     1657.800000       0.915542
     1657.900000       0.915987
     1658.000000       0.916443
     1658.100000       0.916882
     1658.200000       0.917283
     1658.300000       0.917678
     1658.400000       0.918122
     1658.500000       0.918569
     1658.600000       0.919004
     1658.700000       0.919398
     1658.800000       0.919757
     1658.900000       0.920094
     1659.000000       0.920419
     1659.100000       0.920730
     1659.200000       0.921000
     1659.300000       0.921230
     1659.400000       0.921429
     1659.500000       0.921584
     1659.600000       0.921645
     1659.700000       0.921680
     1659.800000       0.921673
     1659.900000       0.921589
     1660.000000       0.921467
     1660.100000       0.921326
     1660.200000       0.921139
     1660.300000       0.920936
     1660.400000       0.920727
     1660.500000       0.920514
     1660.600000       0.920272
     1660.700000       0.919956
     1660.800000       0.919612
     1660.900000       0.919286
     1661.000000       0.918965
     1661.100000       0.918657
     1661.200000       0.918368
     1661.300000       0.918090
     1661.400000       0.917858
     1661.500000       0.917657
     1661.600000       0.917488
     1661.700000       0.917426
     1661.800000       0.917428
     1661.900000       0.917434
     1662.000000       0.917453
     1662.100000       0.917548
     1662.200000       0.917691
     1662.300000       0.917861
     1662.400000       0.918100
     1662.500000       0.918398
     1662.600000       0.918739
     1662.700000       0.919116
     1662.800000       0.919517
     1662.900000       0.919932
     1663.000000       0.920355
     1663.100000       0.920781
     1663.200000       0.921220
     1663.300000       0.921650
     1663.400000       0.922052
     1663.500000       0.922436
     1663.600000       0.922793
     1663.700000       0.923113
     1663.800000       0.923408
     1663.900000       0.923685
     1664.000000       0.923964
     1664.100000       0.924246
     1664.200000       0.924509
     1664.300000       0.924750
     1664.400000       0.924984
     1664.500000       0.925217
     1664.600000       0.925451
     1664.700000       0.925674
     1664.800000       0.925872
     1664.900000       0.926052
     1665.000000       0.926205
     1665.100000       0.926358
     1665.200000       0.926510
     1665.300000       0.926627
     1665.400000       0.926729
     1665.500000       0.926803
     1665.600000       0.926815
     1665.700000       0.926792
     1665.800000       0.926752
     1665.900000       0.926671
     1666.000000       0.926492
     1666.100000       0.926261
     1666.200000       0.925882
     1666.300000       0.925389
     1666.400000       0.924828
     1666.500000       0.924220
     1666.600000       0.923558
     1666.700000       0.922840
     1666.800000       0.922035
     1666.900000       0.921192
     1667.000000       0.920363
     1667.100000       0.919541
     1667.200000       0.918786
     1667.300000       0.918069
     1667.400000       0.917344
     1667.500000       0.916637
     1667.600000       0.915942
     1667.700000       0.915268
     1667.800000       0.914658
     1667.900000       0.914101
     1668.000000       0.913596
     1668.100000       0.913166
     1668.200000       0.912819
     1668.300000       0.912538
     1668.400000       0.912317
     1668.500000       0.912119
     1668.600000       0.911960
     1668.700000       0.911856
     1668.800000       0.911777
     1668.900000       0.911677
     1669.000000       0.911529
     1669.100000       0.911349
     1669.200000       0.911160
     1669.300000       0.910959
     1669.400000       0.910796
     1669.500000       0.910605
     1669.600000       0.910387
     1669.700000       0.910166
     1669.800000       0.909948
     1669.900000       0.909732
     1670.000000       0.909513
     1670.100000       0.909293
     1670.200000       0.909080
     1670.300000       0.908886
     1670.400000       0.908719
     1670.500000       0.908554
     1670.600000       0.908392
     1670.700000       0.908225
     1670.800000       0.908081
     1670.900000       0.907993
     1671.000000       0.907933
     1671.100000       0.907879
     1671.200000       0.907816
     1671.300000       0.907753
     1671.400000       0.907684
     1671.500000       0.907603
     1671.600000       0.907507
     1671.700000       0.907397
     1671.800000       0.907259
     1671.900000       0.907107
     1672.000000       0.906931
     1672.100000       0.906729
     1672.200000       0.906514
     1672.300000       0.906280
     1672.400000       0.906026
     1672.500000       0.905761
     1672.600000       0.905494
     1672.700000       0.905208
     1672.800000       0.904903
     1672.900000       0.904572
     1673.000000       0.904223
     1673.100000       0.903869
     1673.200000       0.903511
     1673.300000       0.903146
     1673.400000       0.902775
     1673.500000       0.902399
     1673.600000       0.902016
     1673.700000       0.901626
     1673.800000       0.901212
     1673.900000       0.900782
     1674.000000       0.900337
     1674.100000       0.899880
     1674.200000       0.899415
     1674.300000       0.898939
     1674.400000       0.898457
     1674.500000       0.897974
     1674.600000       0.897486
     1674.700000       0.897001
     1674.800000       0.896536
     1674.900000       0.896086
     1675.000000       0.895643
     1675.100000       0.895226
     1675.200000       0.894831
     1675.300000       0.894449
     1675.400000       0.894074
     1675.500000       0.893707
     1675.600000       0.893351
     1675.700000       0.893010
     1675.800000       0.892676
     1675.900000       0.892335
     1676.000000       0.892019
     1676.100000       0.891721
     1676.200000       0.891431
     1676.300000       0.891153
     1676.400000       0.890885
     1676.500000       0.890632
     1676.600000       0.890394
     1676.700000       0.890158
     1676.800000       0.889911
     1676.900000       0.889660
     1677.000000       0.889403
     1677.100000       0.889137
     1677.200000       0.888868
     1677.300000       0.888602
     1677.400000       0.888338
     1677.500000       0.888077
     1677.600000       0.887825
     1677.700000       0.887582
     1677.800000       0.887348
     1677.900000       0.887120
     1678.000000       0.886894
     1678.100000       0.886670
     1678.200000       0.886454
     1678.300000       0.886242
     1678.400000       0.886032
     1678.500000       0.885828
     1678.600000       0.885630
     1678.700000       0.885435
     1678.800000       0.885242
     1678.900000       0.885050
     1679.000000       0.884858
     1679.100000       0.884669
     1679.200000       0.884473
     1679.300000       0.884264
     1679.400000       0.884043
     1679.500000       0.883819
     1679.600000       0.883600
     1679.700000       0.883382
     1679.800000       0.883164
     1679.900000       0.882939
     1680.000000       0.882710
     1680.100000       0.882477
     1680.200000       0.882236
     1680.300000       0.881992
     1680.400000       0.881753
     1680.500000       0.881518
     1680.600000       0.881293
     1680.700000       0.881102
     1680.800000       0.880944
     1680.900000       0.880792
     1681.000000       0.880641
     1681.100000       0.880477
     1681.200000       0.880343
     1681.300000       0.880277
     1681.400000       0.880236
     1681.500000       0.880200
     1681.600000       0.880172
     1681.700000       0.880154
     1681.800000       0.880145
     1681.900000       0.880150
     1682.000000       0.880161
     1682.100000       0.880176
     1682.200000       0.880201
     1682.300000       0.880234
     1682.400000       0.880266
     1682.500000       0.880297
     1682.600000       0.880333
     1682.700000       0.880369
     1682.800000       0.880403
     1682.900000       0.880440
     1683.000000       0.880486
     1683.100000       0.880542
     1683.200000       0.880603
     1683.300000       0.880663
     1683.400000       0.880723
     1683.500000       0.880790
     1683.600000       0.880878
     1683.700000       0.881011
     1683.800000       0.881175
     1683.900000       0.881381
     1684.000000       0.881623
     1684.100000       0.881882
     1684.200000       0.882170
     1684.300000       0.882477
     1684.400000       0.882790
     1684.500000       0.883116
     1684.600000       0.883445
     1684.700000       0.883770
     1684.800000       0.884100
     1684.900000       0.884433
     1685.000000       0.884757
     1685.100000       0.885076
     1685.200000       0.885378
     1685.300000       0.885645
     1685.400000       0.885903
     1685.500000       0.886178
     1685.600000       0.886490
     1685.700000       0.886817
     1685.800000       0.887116
     1685.900000       0.887353
     1686.000000       0.887579
     1686.100000       0.887836
     1686.200000       0.888124
     1686.300000       0.888426
     1686.400000       0.888732
     1686.500000       0.889045
     1686.600000       0.889361
     1686.700000       0.889666
     1686.800000       0.889966
     1686.900000       0.890285
     1687.000000       0.890646
     1687.100000       0.891036
     1687.200000       0.891422
     1687.300000       0.891797
     1687.400000       0.892164
     1687.500000       0.892505
     1687.600000       0.892787
     1687.700000       0.893055
     1687.800000       0.893349
     1687.900000       0.893670
     1688.000000       0.894034
     1688.100000       0.894440
     1688.200000       0.894866
     1688.300000       0.895315
     1688.400000       0.895793
     1688.500000       0.896302
     1688.600000       0.896831
     1688.700000       0.897377
     1688.800000       0.897944
     1688.900000       0.898516
     1689.000000       0.899080
     1689.100000       0.899658
     1689.200000       0.900280
     1689.300000       0.900913
     1689.400000       0.901539
     1689.500000       0.902149
     1689.600000       0.902744
     1689.700000       0.903310
     1689.800000       0.903813
     1689.900000       0.904294
     1690.000000       0.904746
     1690.100000       0.905139
     1690.200000       0.905460
     1690.300000       0.905736
     1690.400000       0.905949
     1690.500000       0.906127
     1690.600000       0.906270
     1690.700000       0.906379
     1690.800000       0.906467
     1690.900000       0.906550
     1691.000000       0.906633
     1691.100000       0.906713
     1691.200000       0.906801
     1691.300000       0.906902
     1691.400000       0.906993
     1691.500000       0.907078
     1691.600000       0.907154
     1691.700000       0.907234
     1691.800000       0.907346
     1691.900000       0.907510
     1692.000000       0.907711
     1692.100000       0.907957
     1692.200000       0.908217
     1692.300000       0.908497
     1692.400000       0.908844
     1692.500000       0.909259
     1692.600000       0.909721
     1692.700000       0.910235
     1692.800000       0.910812
     1692.900000       0.911417
     1693.000000       0.912040
     1693.100000       0.912689
     1693.200000       0.913341
     1693.300000       0.913992
     1693.400000       0.914645
     1693.500000       0.915288
     1693.600000       0.915940
     1693.700000       0.916609
     1693.800000       0.917296
     1693.900000       0.918007
     1694.000000       0.918724
     1694.100000       0.919426
     1694.200000       0.920116
     1694.300000       0.920798
     1694.400000       0.921465
     1694.500000       0.922109
     1694.600000       0.922708
     1694.700000       0.923288
     1694.800000       0.923857
     1694.900000       0.924415
     1695.000000       0.924962
     1695.100000       0.925497
     1695.200000       0.926016
     1695.300000       0.926529
     1695.400000       0.927033
     1695.500000       0.927507
     1695.600000       0.927944
     1695.700000       0.928355
     1695.800000       0.928743
     1695.900000       0.929119
     1696.000000       0.929473
     1696.100000       0.929773
     1696.200000       0.930030
     1696.300000       0.930261
     1696.400000       0.930473
     1696.500000       0.930661
     1696.600000       0.930822
     1696.700000       0.930967
     1696.800000       0.931092
     1696.900000       0.931201
     1697.000000       0.931289
     1697.100000       0.931365
     1697.200000       0.931439
     1697.300000       0.931519
     1697.400000       0.931602
     1697.500000       0.931697
     1697.600000       0.931817
     1697.700000       0.931956
     1697.800000       0.932088
     1697.900000       0.932204
     1698.000000       0.932335
     1698.100000       0.932478
     1698.200000       0.932630
     1698.300000       0.932788
     1698.400000       0.932948
     1698.500000       0.933109
     1698.600000       0.933274
     1698.700000       0.933444
     1698.800000       0.933622
     1698.900000       0.933822
     1699.000000       0.934064
     1699.100000       0.934322
     1699.200000       0.934599
     1699.300000       0.934904
     1699.400000       0.935239
     1699.500000       0.935596
     1699.600000       0.935974
     1699.700000       0.936378
     1699.800000       0.936789
     1699.900000       0.937195
     1700.000000       0.937604
     1700.100000       0.938024
     1700.200000       0.938472
     1700.300000       0.938931
     1700.400000       0.939365
     1700.500000       0.939771
     1700.600000       0.940155
     1700.700000       0.940503
     1700.800000       0.940818
     1700.900000       0.941099
     1701.000000       0.941323
     1701.100000       0.941470
     1701.200000       0.941552
     1701.300000       0.941560
     1701.400000       0.941469
     1701.500000       0.941322
     1701.600000       0.941149
     1701.700000       0.940898
     1701.800000       0.940602
     1701.900000       0.940293
     1702.000000       0.939946
     1702.100000       0.939593
     1702.200000       0.939261
     1702.300000       0.938934
     1702.400000       0.938599
     1702.500000       0.938224
     1702.600000       0.937818
     1702.700000       0.937416
     1702.800000       0.937031
     1702.900000       0.936657
     1703.000000       0.936299
     1703.100000       0.935958
     1703.200000       0.935639
     1703.300000       0.935364
     1703.400000       0.935098
     1703.500000       0.934820
     1703.600000       0.934518
     1703.700000       0.934192
     1703.800000       0.933833
     1703.900000       0.933428
     1704.000000       0.932947
     1704.100000       0.932428
     1704.200000       0.931917
     1704.300000       0.931419
     1704.400000       0.930891
     1704.500000       0.930271
     1704.600000       0.929520
     1704.700000       0.928717
     1704.800000       0.927931
     1704.900000       0.927156
     1705.000000       0.926350
     1705.100000       0.925470
     1705.200000       0.924522
     1705.300000       0.923540
     1705.400000       0.922530
     1705.500000       0.921489
     1705.600000       0.920441
     1705.700000       0.919371
     1705.800000       0.918284
     1705.900000       0.917167
     1706.000000       0.916007
     1706.100000       0.914814
     1706.200000       0.913597
     1706.300000       0.912359
     1706.400000       0.911096
     1706.500000       0.909804
     1706.600000       0.908469
     1706.700000       0.907107
     1706.800000       0.905727
     1706.900000       0.904689
     1707.000000       0.903395
     1707.100000       0.897212
     1707.200000       0.850920
     1707.300000       0.796631
     1707.400000       0.779425
     1707.500000       0.775635
     1707.600000       0.772983
     1707.700000       0.770202
     1707.800000       0.767677
     1707.900000       0.765387
     1708.000000       0.763308
     1708.100000       0.761405
     1708.200000       0.759577
     1708.300000       0.757755
     1708.400000       0.755975
     1708.500000       0.754200
     1708.600000       0.752397
     1708.700000       0.750571
     1708.800000       0.748703
     1708.900000       0.746721
     1709.000000       0.744647
     1709.100000       0.742524
     1709.200000       0.740380
     1709.300000       0.738210
     1709.400000       0.736018
     1709.500000       0.733801
     1709.600000       0.731561
     1709.700000       0.729307
     1709.800000       0.727038
     1709.900000       0.724733
     1710.000000       0.722387
     1710.100000       0.719987
     1710.200000       0.717553
     1710.300000       0.715058
     1710.400000       0.712488
     1710.500000       0.709860
     1710.600000       0.707156
     1710.700000       0.704348
     1710.800000       0.701480
     1710.900000       0.698560
     1711.000000       0.695575
     1711.100000       0.692539
     1711.200000       0.689437
     1711.300000       0.686271
     1711.400000       0.683050
     1711.500000       0.679754
     1711.600000       0.676384
     1711.700000       0.672950
     1711.800000       0.669454
     1711.900000       0.665883
     1712.000000       0.662271
     1712.100000       0.658600
     1712.200000       0.654883
     1712.300000       0.651130
     1712.400000       0.647317
     1712.500000       0.643469
     1712.600000       0.639603
     1712.700000       0.635724
     1712.800000       0.631834
     1712.900000       0.627951
     1713.000000       0.624087
     1713.100000       0.620232
     1713.200000       0.616392
     1713.300000       0.612575
     1713.400000       0.608764
     1713.500000       0.604946
     1713.600000       0.601108
     1713.700000       0.597255
     1713.800000       0.593381
     1713.900000       0.589483
     1714.000000       0.585565
     1714.100000       0.581628
     1714.200000       0.577660
     1714.300000       0.573660
     1714.400000       0.569629
     1714.500000       0.565543
     1714.600000       0.561425
     1714.700000       0.557277
     1714.800000       0.553097
     1714.900000       0.548894
     1715.000000       0.544677
     1715.100000       0.540442
     1715.200000       0.536194
     1715.300000       0.531945
     1715.400000       0.527689
     1715.500000       0.523434
     1715.600000       0.519192
     1715.700000       0.514958
     1715.800000       0.510729
     1715.900000       0.506500
     1716.000000       0.502275
     1716.100000       0.498050
     1716.200000       0.493822
     1716.300000       0.489591
     1716.400000       0.485360
     1716.500000       0.481140
     1716.600000       0.476932
     1716.700000       0.472728
     1716.800000       0.468531
     1716.900000       0.464341
     1717.000000       0.460151
     1717.100000       0.455954
     1717.200000       0.451754
     1717.300000       0.447549
     1717.400000       0.443336
     1717.500000       0.439117
     1717.600000       0.434894
     1717.700000       0.430666
     1717.800000       0.426438
     1717.900000       0.422212
     1718.000000       0.417994
     1718.100000       0.413780
     1718.200000       0.409573
     1718.300000       0.405377
     1718.400000       0.401196
     1718.500000       0.397029
     1718.600000       0.392890
     1718.700000       0.388781
     1718.800000       0.384697
     1718.900000       0.380647
     1719.000000       0.376623
     1719.100000       0.372624
     1719.200000       0.368653
     1719.300000       0.364703
     1719.400000       0.360776
     1719.500000       0.356875
     1719.600000       0.352995
     1719.700000       0.349133
     1719.800000       0.345291
     1719.900000       0.341465
     1720.000000       0.337656
     1720.100000       0.333870
     1720.200000       0.330102
     1720.300000       0.326364
     1720.400000       0.322661
     1720.500000       0.318984
     1720.600000       0.315334
     1720.700000       0.311720
     1720.800000       0.308133
     1720.900000       0.304583
     1721.000000       0.301068
     1721.100000       0.297580
     1721.200000       0.294120
     1721.300000       0.290705
     1721.400000       0.287314
     1721.500000       0.283957
     1721.600000       0.280629
     1721.700000       0.277329
     1721.800000       0.274053
     1721.900000       0.270807
     1722.000000       0.267582
     1722.100000       0.264374
     1722.200000       0.261193
     1722.300000       0.258030
     1722.400000       0.254891
     1722.500000       0.251771
     1722.600000       0.248673
     1722.700000       0.245598
     1722.800000       0.242548
     1722.900000       0.239518
     1723.000000       0.236516
     1723.100000       0.233537
     1723.200000       0.230583
     1723.300000       0.227667
     1723.400000       0.224790
     1723.500000       0.221943
     1723.600000       0.219149
     1723.700000       0.216389
     1723.800000       0.213660
     1723.900000       0.210971
     1724.000000       0.208325
     1724.100000       0.205703
     1724.200000       0.203116
     1724.300000       0.200555
     1724.400000       0.198024
     1724.500000       0.195531
     1724.600000       0.193062
     1724.700000       0.190618
     1724.800000       0.188200
     1724.900000       0.185810
     1725.000000       0.183438
     1725.100000       0.181083
     1725.200000       0.178753
     1725.300000       0.176443
     1725.400000       0.174164
     1725.500000       0.171907
     1725.600000       0.169673
     1725.700000       0.167469
     1725.800000       0.165301
     1725.900000       0.163159
     1726.000000       0.161053
     1726.100000       0.158976
     1726.200000       0.156930
     1726.300000       0.154930
     1726.400000       0.152966
     1726.500000       0.151033
     1726.600000       0.149131
     1726.700000       0.147258
     1726.800000       0.145410
     1726.900000       0.143583
     1727.000000       0.141779
     1727.100000       0.139995
     1727.200000       0.138232
     1727.300000       0.136491
     1727.400000       0.134767
     1727.500000       0.133067
     1727.600000       0.131379
     1727.700000       0.129713
     1727.800000       0.128078
     1727.900000       0.126467
     1728.000000       0.124875
     1728.100000       0.123313
     1728.200000       0.121766
     1728.300000       0.120239
     1728.400000       0.118735
     1728.500000       0.117252
     1728.600000       0.115786
     1728.700000       0.114341
     1728.800000       0.112918
     1728.900000       0.111517
     1729.000000       0.110143
     1729.100000       0.108789
     1729.200000       0.107454
     1729.300000       0.106139
     1729.400000       0.104842
     1729.500000       0.103558
     1729.600000       0.102297
     1729.700000       0.101049
     1729.800000       0.099811
     1729.900000       0.098592
     1730.000000       0.097384
     1730.100000       0.096200
     1730.200000       0.095059
     1730.300000       0.093944
     1730.400000       0.092846
     1730.500000       0.091758
     1730.600000       0.090680
     1730.700000       0.089611
     1730.800000       0.088550
     1730.900000       0.087503
     1731.000000       0.086481
     1731.100000       0.085498
     1731.200000       0.084537
     1731.300000       0.083585
     1731.400000       0.082640
     1731.500000       0.081704
     1731.600000       0.080774
     1731.700000       0.079852
     1731.800000       0.078941
     1731.900000       0.078047
     1732.000000       0.077183
     1732.100000       0.076339
     1732.200000       0.075505
     1732.300000       0.074681
     1732.400000       0.073867
     1732.500000       0.073063
     1732.600000       0.072280
     1732.700000       0.071506
     1732.800000       0.070739
     1732.900000       0.069981
     1733.000000       0.069230
     1733.100000       0.068485
     1733.200000       0.067752
     1733.300000       0.067026
     1733.400000       0.066322
     1733.500000       0.065650
     1733.600000       0.064998
     1733.700000       0.064356
     1733.800000       0.063720
     1733.900000       0.063092
     1734.000000       0.062471
     1734.100000       0.061852
     1734.200000       0.061236
     1734.300000       0.060630
     1734.400000       0.060038
     1734.500000       0.059455
     1734.600000       0.058880
     1734.700000       0.058311
     1734.800000       0.057755
     1734.900000       0.057211
     1735.000000       0.056690
     1735.100000       0.056182
     1735.200000       0.055683
     1735.300000       0.055197
     1735.400000       0.054721
     1735.500000       0.054251
     1735.600000       0.053786
     1735.700000       0.053325
     1735.800000       0.052867
     1735.900000       0.052414
     1736.000000       0.051963
     1736.100000       0.051513
     1736.200000       0.051062
     1736.300000       0.050610
     1736.400000       0.050160
     1736.500000       0.049711
     1736.600000       0.049263
     1736.700000       0.048822
     1736.800000       0.048389
     1736.900000       0.047964
     1737.000000       0.047545
     1737.100000       0.047140
     1737.200000       0.046740
     1737.300000       0.046349
     1737.400000       0.045970
     1737.500000       0.045601
     1737.600000       0.045238
     1737.700000       0.044885
     1737.800000       0.044536
     1737.900000       0.044190
     1738.000000       0.043846
     1738.100000       0.043506
     1738.200000       0.043167
     1738.300000       0.042831
     1738.400000       0.042498
     1738.500000       0.042166
     1738.600000       0.041838
     1738.700000       0.041512
     1738.800000       0.041188
     1738.900000       0.040866
     1739.000000       0.040546
     1739.100000       0.040227
     1739.200000       0.039913
     1739.300000       0.039603
     1739.400000       0.039294
     1739.500000       0.038986
     1739.600000       0.038675
     1739.700000       0.038372
     1739.800000       0.038089
     1739.900000       0.037819
     1740.000000       0.037556
     1740.100000       0.037290
     1740.200000       0.037025
     1740.300000       0.036765
     1740.400000       0.036519
     1740.500000       0.036285
     1740.600000       0.036056
     1740.700000       0.035828
     1740.800000       0.035600
     1740.900000       0.035373
     1741.000000       0.035146
     1741.100000       0.034920
     1741.200000       0.034694
     1741.300000       0.034469
     1741.400000       0.034245
     1741.500000       0.034021
     1741.600000       0.033798
     1741.700000       0.033574
     1741.800000       0.033350
     1741.900000       0.033128
     1742.000000       0.032906
     1742.100000       0.032686
     1742.200000       0.032466
     1742.300000       0.032246
     1742.400000       0.032027
     1742.500000       0.031810
     1742.600000       0.031595
     1742.700000       0.031382
     1742.800000       0.031169
     1742.900000       0.030955
     1743.000000       0.030742
     1743.100000       0.030531
     1743.200000       0.030325
     1743.300000       0.030119
     1743.400000       0.029914
     1743.500000       0.029707
     1743.600000       0.029502
     1743.700000       0.029298
     1743.800000       0.029099
     1743.900000       0.028902
     1744.000000       0.028705
     1744.100000       0.028507
     1744.200000       0.028310
     1744.300000       0.028116
     1744.400000       0.027926
     1744.500000       0.027738
     1744.600000       0.027550
     1744.700000       0.027362
     1744.800000       0.027175
     1744.900000       0.026991
     1745.000000       0.026809
     1745.100000       0.026628
     1745.200000       0.026449
     1745.300000       0.026269
     1745.400000       0.026091
     1745.500000       0.025913
     1745.600000       0.025736
     1745.700000       0.025559
     1745.800000       0.025383
     1745.900000       0.025208
     1746.000000       0.025032
     1746.100000       0.024857
     1746.200000       0.024683
     1746.300000       0.024508
     1746.400000       0.024334
     1746.500000       0.024160
     1746.600000       0.023987
     1746.700000       0.023814
     1746.800000       0.023641
     1746.900000       0.023468
     1747.000000       0.023295
     1747.100000       0.023125
     1747.200000       0.022955
     1747.300000       0.022787
     1747.400000       0.022619
     1747.500000       0.022451
     1747.600000       0.022285
     1747.700000       0.022121
     1747.800000       0.021960
     1747.900000       0.021800
     1748.000000       0.021642
     1748.100000       0.021486
     1748.200000       0.021331
     1748.300000       0.021177
     1748.400000       0.021025
     1748.500000       0.020873
     1748.600000       0.020726
     1748.700000       0.020580
     1748.800000       0.020436
     1748.900000       0.020292
     1749.000000       0.020150
     1749.100000       0.020008
     1749.200000       0.019869
     1749.300000       0.019731
     1749.400000       0.019594
     1749.500000       0.019458
     1749.600000       0.019323
     1749.700000       0.019189
     1749.800000       0.019053
     1749.900000       0.018919
     1750.000000       0.018782
     1750.100000       0.018633
     1750.200000       0.018485
     1750.300000       0.018320
     1750.400000       0.018104
     1750.500000       0.017743
     1750.600000       0.017302
     1750.700000       0.016858
     1750.800000       0.016513
     1750.900000       0.016189
     1751.000000       0.015880
     1751.100000       0.015597
     1751.200000       0.015328
     1751.300000       0.015065
     1751.400000       0.014803
     1751.500000       0.014546
     1751.600000       0.014296
     1751.700000       0.014056
     1751.800000       0.013821
     1751.900000       0.013603
     1752.000000       0.013409
     1752.100000       0.013232
     1752.200000       0.013067
     1752.300000       0.012913
     1752.400000       0.012771
     1752.500000       0.012634
     1752.600000       0.012500
     1752.700000       0.012371
     1752.800000       0.012238
     1752.900000       0.012100
     1753.000000       0.011956
     1753.100000       0.011808
     1753.200000       0.011654
     1753.300000       0.011493
     1753.400000       0.011330
     1753.500000       0.011168
     1753.600000       0.011010
     1753.700000       0.010853
     1753.800000       0.010707
     1753.900000       0.010569
     1754.000000       0.010438
     1754.100000       0.010316
     1754.200000       0.010202
     1754.300000       0.010094
     1754.400000       0.009988
     1754.500000       0.009884
     1754.600000       0.009781
     1754.700000       0.009678
     1754.800000       0.009572
     1754.900000       0.009467
     1755.000000       0.009365
     1755.100000       0.009264
     1755.200000       0.009168
     1755.300000       0.009080
     1755.400000       0.009004
     1755.500000       0.008934
     1755.600000       0.008870
     1755.700000       0.008809
     1755.800000       0.008752
     1755.900000       0.008699
     1756.000000       0.008650
     1756.100000       0.008604
     1756.200000       0.008559
     1756.300000       0.008515
     1756.400000       0.008473
     1756.500000       0.008430
     1756.600000       0.008386
     1756.700000       0.008341
     1756.800000       0.008295
     1756.900000       0.008245
     1757.000000       0.008193
     1757.100000       0.008139
     1757.200000       0.008082
     1757.300000       0.008022
     1757.400000       0.007961
     1757.500000       0.007899
     1757.600000       0.007837
     1757.700000       0.007774
     1757.800000       0.007713
     1757.900000       0.007653
     1758.000000       0.007595
     1758.100000       0.007540
     1758.200000       0.007488
     1758.300000       0.007438
     1758.400000       0.007390
     1758.500000       0.007346
     1758.600000       0.007303
     1758.700000       0.007262
     1758.800000       0.007221
     1758.900000       0.007181
     1759.000000       0.007141
     1759.100000       0.007099
     1759.200000       0.007056
     1759.300000       0.007012
     1759.400000       0.006965
     1759.500000       0.006917
     1759.600000       0.006867
     1759.700000       0.006816
     1759.800000       0.006764
     1759.900000       0.006712
     1760.000000       0.006661
     1760.100000       0.006611
     1760.200000       0.006564
     1760.300000       0.006519
     1760.400000       0.006478
     1760.500000       0.006439
     1760.600000       0.006404
     1760.700000       0.006373
     1760.800000       0.006345
     1760.900000       0.006320
     1761.000000       0.006298
     1761.100000       0.006277
     1761.200000       0.006256
     1761.300000       0.006236
     1761.400000       0.006216
     1761.500000       0.006194
     1761.600000       0.006170
     1761.700000       0.006144
     1761.800000       0.006116
     1761.900000       0.006084
     1762.000000       0.006051
     1762.100000       0.006016
     1762.200000       0.005980
     1762.300000       0.005942
     1762.400000       0.005905
     1762.500000       0.005868
     1762.600000       0.005832
     1762.700000       0.005798
     1762.800000       0.005768
     1762.900000       0.005739
     1763.000000       0.005713
     1763.100000       0.005690
     1763.200000       0.005669
     1763.300000       0.005650
     1763.400000       0.005632
     1763.500000       0.005614
     1763.600000       0.005598
     1763.700000       0.005579
     1763.800000       0.005560
     1763.900000       0.005539
     1764.000000       0.005516
     1764.100000       0.005490
     1764.200000       0.005461
     1764.300000       0.005431
     1764.400000       0.005399
     1764.500000       0.005364
     1764.600000       0.005330
     1764.700000       0.005295
     1764.800000       0.005259
     1764.900000       0.005226
     1765.000000       0.005195
     1765.100000       0.005166
     1765.200000       0.005139
     1765.300000       0.005117
     1765.400000       0.005096
     1765.500000       0.005078
     1765.600000       0.005064
     1765.700000       0.005051
     1765.800000       0.005039
     1765.900000       0.005028
     1766.000000       0.005016
     1766.100000       0.005005
     1766.200000       0.004991
     1766.300000       0.004975
     1766.400000       0.004957
     1766.500000       0.004937
     1766.600000       0.004913
     1766.700000       0.004886
     1766.800000       0.004858
     1766.900000       0.004827
     1767.000000       0.004795
     1767.100000       0.004764
     1767.200000       0.004732
     1767.300000       0.004701
     1767.400000       0.004672
     1767.500000       0.004646
     1767.600000       0.004622
     1767.700000       0.004600
     1767.800000       0.004583
     1767.900000       0.004568
     1768.000000       0.004555
     1768.100000       0.004544
     1768.200000       0.004534
     1768.300000       0.004525
     1768.400000       0.004515
     1768.500000       0.004505
     1768.600000       0.004494
     1768.700000       0.004480
     1768.800000       0.004463
     1768.900000       0.004444
     1769.000000       0.004422
     1769.100000       0.004396
     1769.200000       0.004368
     1769.300000       0.004340
     1769.400000       0.004309
     1769.500000       0.004276
     1769.600000       0.004245
     1769.700000       0.004215
     1769.800000       0.004185
     1769.900000       0.004158
     1770.000000       0.004135
     1770.100000       0.004113
     1770.200000       0.004095
     1770.300000       0.004080
     1770.400000       0.004067
     1770.500000       0.004056
     1770.600000       0.004046
     1770.700000       0.004038
     1770.800000       0.004029
     1770.900000       0.004019
     1771.000000       0.004008
     1771.100000       0.003995
     1771.200000       0.003980
     1771.300000       0.003961
     1771.400000       0.003939
     1771.500000       0.003916
     1771.600000       0.003890
     1771.700000       0.003861
     1771.800000       0.003832
     1771.900000       0.003802
     1772.000000       0.003772
     1772.100000       0.003743
     1772.200000       0.003716
     1772.300000       0.003691
     1772.400000       0.003668
     1772.500000       0.003649
     1772.600000       0.003631
     1772.700000       0.003616
     1772.800000       0.003604
     1772.900000       0.003595
     1773.000000       0.003585
     1773.100000       0.003577
     1773.200000       0.003568
     1773.300000       0.003560
     1773.400000       0.003549
     1773.500000       0.003537
     1773.600000       0.003524
     1773.700000       0.003508
     1773.800000       0.003490
     1773.900000       0.003469
     1774.000000       0.003447
     1774.100000       0.003423
     1774.200000       0.003399
     1774.300000       0.003374
     1774.400000       0.003349
     1774.500000       0.003324
     1774.600000       0.003300
     1774.700000       0.003278
     1774.800000       0.003257
     1774.900000       0.003238
     1775.000000       0.003219
     1775.100000       0.003203
     1775.200000       0.003186
     1775.300000       0.003170
     1775.400000       0.003153
     1775.500000       0.003137
     1775.600000       0.003118
     1775.700000       0.003098
     1775.800000       0.003076
     1775.900000       0.003052
     1776.000000       0.003026
     1776.100000       0.002997
     1776.200000       0.002967
     1776.300000       0.002935
     1776.400000       0.002903
     1776.500000       0.002870
     1776.600000       0.002838
     1776.700000       0.002806
     1776.800000       0.002777
     1776.900000       0.002750
     1777.000000       0.002725
     1777.100000       0.002703
     1777.200000       0.002685
     1777.300000       0.002670
     1777.400000       0.002656
     1777.500000       0.002645
     1777.600000       0.002637
     1777.700000       0.002629
     1777.800000       0.002622
     1777.900000       0.002614
     1778.000000       0.002605
     1778.100000       0.002595
     1778.200000       0.002582
     1778.300000       0.002567
     1778.400000       0.002549
     1778.500000       0.002529
     1778.600000       0.002504
     1778.700000       0.002479
     1778.800000       0.002452
     1778.900000       0.002423
     1779.000000       0.002394
     1779.100000       0.002366
     1779.200000       0.002338
     1779.300000       0.002311
     1779.400000       0.002288
     1779.500000       0.002266
     1779.600000       0.002247
     1779.700000       0.002229
     1779.800000       0.002216
     1779.900000       0.002203
     1780.000000       0.002191
     1780.100000       0.002181
     1780.200000       0.002171
     1780.300000       0.002160
     1780.400000       0.002148
     1780.500000       0.002135
     1780.600000       0.002119
     1780.700000       0.002102
     1780.800000       0.002081
     1780.900000       0.002059
     1781.000000       0.002035
     1781.100000       0.002008
     1781.200000       0.001980
     1781.300000       0.001953
     1781.400000       0.001924
     1781.500000       0.001896
     1781.600000       0.001870
     1781.700000       0.001845
     1781.800000       0.001822
     1781.900000       0.001801
     1782.000000       0.001782
     1782.100000       0.001766
     1782.200000       0.001751
     1782.300000       0.001738
     1782.400000       0.001726
     1782.500000       0.001714
     1782.600000       0.001702
     1782.700000       0.001690
     1782.800000       0.001677
     1782.900000       0.001663
     1783.000000       0.001646
     1783.100000       0.001628
     1783.200000       0.001609
     1783.300000       0.001588
     1783.400000       0.001566
     1783.500000       0.001544
     1783.600000       0.001521
     1783.700000       0.001498
     1783.800000       0.001477
     1783.900000       0.001459
     1784.000000       0.001441
     1784.100000       0.001425
     1784.200000       0.001413
     1784.300000       0.001403
     1784.400000       0.001395
     1784.500000       0.001391
     1784.600000       0.001388
     1784.700000       0.001386
     1784.800000       0.001383
     1784.900000       0.001381
     1785.000000       0.001379
     1785.100000       0.001376
     1785.200000       0.001370
     1785.300000       0.001361
     1785.400000       0.001350
     1785.500000       0.001336
     1785.600000       0.001318
     1785.700000       0.001299
     1785.800000       0.001277
     1785.900000       0.001253
     1786.000000       0.001229
     1786.100000       0.001205
     1786.200000       0.001181
     1786.300000       0.001157
     1786.400000       0.001137
     1786.500000       0.001117
     1786.600000       0.001100
     1786.700000       0.001087
     1786.800000       0.001076
     1786.900000       0.001067
     1787.000000       0.001060
     1787.100000       0.001055
     1787.200000       0.001050
     1787.300000       0.001046
     1787.400000       0.001040
     1787.500000       0.001034
     1787.600000       0.001028
     1787.700000       0.001020
     1787.800000       0.001010
     1787.900000       0.000997
     1788.000000       0.000973
     1788.100000       0.000929
     1788.200000       0.000886
     1788.300000       0.000850
     1788.400000       0.000826
     1788.500000       0.000806
     1788.600000       0.000787
     1788.700000       0.000769
     1788.800000       0.000754
     1788.900000       0.000741
     1789.000000       0.000732
     1789.100000       0.000724
     1789.200000       0.000720
     1789.300000       0.000720
     1789.400000       0.000721
     1789.500000       0.000722
     1789.600000       0.000723
     1789.700000       0.000725
     1789.800000       0.000728
     1789.900000       0.000728
     1790.000000       0.000726
     1790.100000       0.000723
     1790.200000       0.000718
     1790.300000       0.000710
     1790.400000       0.000699
     1790.500000       0.000685
     1790.600000       0.000670
     1790.700000       0.000655
     1790.800000       0.000638
     1790.900000       0.000622
     1791.000000       0.000606
     1791.100000       0.000592
     1791.200000       0.000581
     1791.300000       0.000570
     1791.400000       0.000562
     1791.500000       0.000558
     1791.600000       0.000556
     1791.700000       0.000554
     1791.800000       0.000554
     1791.900000       0.000555
     1792.000000       0.000556
     1792.100000       0.000558
     1792.200000       0.000557
     1792.300000       0.000555
     1792.400000       0.000552
     1792.500000       0.000548
     1792.600000       0.000540
     1792.700000       0.000530
     1792.800000       0.000518
     1792.900000       0.000504
     1793.000000       0.000488
     1793.100000       0.000472
     1793.200000       0.000456
     1793.300000       0.000440
     1793.400000       0.000426
     1793.500000       0.000414
     1793.600000       0.000403
     1793.700000       0.000395
     1793.800000       0.000391
     1793.900000       0.000389
     1794.000000       0.000387
     1794.100000       0.000388
     1794.200000       0.000391
     1794.300000       0.000396
     1794.400000       0.000400
     1794.500000       0.000405
     1794.600000       0.000410
     1794.700000       0.000411
     1794.800000       0.000411
     1794.900000       0.000410
     1795.000000       0.000408
     1795.100000       0.000404
     1795.200000       0.000396
     1795.300000       0.000387
     1795.400000       0.000377
     1795.500000       0.000366
     1795.600000       0.000356
     1795.700000       0.000346
     1795.800000       0.000337
     1795.900000       0.000330
     1796.000000       0.000328
     1796.100000       0.000328
     1796.200000       0.000328
     1796.300000       0.000328
     1796.400000       0.000332
     1796.500000       0.000340
     1796.600000       0.000348
     1796.700000       0.000356
     1796.800000       0.000365
     1796.900000       0.000373
     1797.000000       0.000377
     1797.100000       0.000381
     1797.200000       0.000383
     1797.300000       0.000384
     1797.400000       0.000380
     1797.500000       0.000374
     1797.600000       0.000367
     1797.700000       0.000358
     1797.800000       0.000347
     1797.900000       0.000335
     1798.000000       0.000324
     1798.100000       0.000313
     1798.200000       0.000303
     1798.300000       0.000296
     1798.400000       0.000289
     1798.500000       0.000285
     1798.600000       0.000284
     1798.700000       0.000284
     1798.800000       0.000285
     1798.900000       0.000286
     1799.000000       0.000290
     1799.100000       0.000294
     1799.200000       0.000296
     1799.300000       0.000296
     1799.400000       0.000295
     1799.500000       0.000295
     1799.600000       0.000292
     1799.700000       0.000285
     1799.800000       0.000276
     1799.900000       0.000266
     1800.000000       0.000253
     1800.100000       0.000239
     1800.200000       0.000224
     1800.300000       0.000210
     1800.400000       0.000195
     1800.500000       0.000183
     1800.600000       0.000172
     1800.700000       0.000161
     1800.800000       0.000155
     1800.900000       0.000153
     1801.000000       0.000152
     1801.100000       0.000152
     1801.200000       0.000152
     1801.300000       0.000157
     1801.400000       0.000162
     1801.500000       0.000169
     1801.600000       0.000175
     1801.700000       0.000180
     1801.800000       0.000183
     1801.900000       0.000183
     1802.000000       0.000183
     1802.100000       0.000183
     1802.200000       0.000182
     1802.300000       0.000176
     1802.400000       0.000169
     1802.500000       0.000161
     1802.600000       0.000152
     1802.700000       0.000143
     1802.800000       0.000136
     1802.900000       0.000129
     1803.000000       0.000124
     1803.100000       0.000121
     1803.200000       0.000122
     1803.300000       0.000124
     1803.400000       0.000126
     1803.500000       0.000131
     1803.600000       0.000138
     1803.700000       0.000148
     1803.800000       0.000157
     1803.900000       0.000166
     1804.000000       0.000176
     1804.100000       0.000183
     1804.200000       0.000190
     1804.300000       0.000195
     1804.400000       0.000197
     1804.500000       0.000196
     1804.600000       0.000193
     1804.700000       0.000190
     1804.800000       0.000184
     1804.900000       0.000176
     1805.000000       0.000167
     1805.100000       0.000159
     1805.200000       0.000150
     1805.300000       0.000142
     1805.400000       0.000136
     1805.500000       0.000132
     1805.600000       0.000129
     1805.700000       0.000127
     1805.800000       0.000128
     1805.900000       0.000131
     1806.000000       0.000135
     1806.100000       0.000140
     1806.200000       0.000145
     1806.300000       0.000151
     1806.400000       0.000154
     1806.500000       0.000158
     1806.600000       0.000160
     1806.700000       0.000161
     1806.800000       0.000160
     1806.900000       0.000156
     1807.000000       0.000152
     1807.100000       0.000146
     1807.200000       0.000139
     1807.300000       0.000132
     1807.400000       0.000125
     1807.500000       0.000118
     1807.600000       0.000112
     1807.700000       0.000109
     1807.800000       0.000108
     1807.900000       0.000107
     1808.000000       0.000107
     1808.100000       0.000110
     1808.200000       0.000116
     1808.300000       0.000122
     1808.400000       0.000130
     1808.500000       0.000138
     1808.600000       0.000146
     1808.700000       0.000153
     1808.800000       0.000160
     1808.900000       0.000164
     1809.000000       0.000165
     1809.100000       0.000164
     1809.200000       0.000162
     1809.300000       0.000159
     1809.400000       0.000153
     1809.500000       0.000145
     1809.600000       0.000135
     1809.700000       0.000125
     1809.800000       0.000115
     1809.900000       0.000104
     1810.000000       0.000095
     1810.100000       0.000087
     1810.200000       0.000081
     1810.300000       0.000078
     1810.400000       0.000078
     1810.500000       0.000077
     1810.600000       0.000077
     1810.700000       0.000079
     1810.800000       0.000084
     1810.900000       0.000090
     1811.000000       0.000095
     1811.100000       0.000100
     1811.200000       0.000105
     1811.300000       0.000106
     1811.400000       0.000106
     1811.500000       0.000105
     1811.600000       0.000105
     1811.700000       0.000103
     1811.800000       0.000097
     1811.900000       0.000090
     1812.000000       0.000084
     1812.100000       0.000077
     1812.200000       0.000070
     1812.300000       0.000065
     1812.400000       0.000061
     1812.500000       0.000057
     1812.600000       0.000056
     1812.700000       0.000058
     1812.800000       0.000061
     1812.900000       0.000065
     1813.000000       0.000072
     1813.100000       0.000080
     1813.200000       0.000089
     1813.300000       0.000098
     1813.400000       0.000107
     1813.500000       0.000116
     1813.600000       0.000121
     1813.700000       0.000125
     1813.800000       0.000128
     1813.900000       0.000129
     1814.000000       0.000127
     1814.100000       0.000122
     1814.200000       0.000116
     1814.300000       0.000109
     1814.400000       0.000100
     1814.500000       0.000091
     1814.600000       0.000082
     1814.700000       0.000073
     1814.800000       0.000066
     1814.900000       0.000062
     1815.000000       0.000060
     1815.100000       0.000058
     1815.200000       0.000058
     1815.300000       0.000059
     1815.400000       0.000064
     1815.500000       0.000070
     1815.600000       0.000076
     1815.700000       0.000083
     1815.800000       0.000089
     1815.900000       0.000094
     1816.000000       0.000098
     1816.100000       0.000101
     1816.200000       0.000103
     1816.300000       0.000101
     1816.400000       0.000098
     1816.500000       0.000094
     1816.600000       0.000089
     1816.700000       0.000082
     1816.800000       0.000074
     1816.900000       0.000067
     1817.000000       0.000060
     1817.100000       0.000053
     1817.200000       0.000049
     1817.300000       0.000047
     1817.400000       0.000046
     1817.500000       0.000045
     1817.600000       0.000046
     1817.700000       0.000050
     1817.800000       0.000056
     1817.900000       0.000062
     1818.000000       0.000068
     1818.100000       0.000075
     1818.200000       0.000080
     1818.300000       0.000085
     1818.400000       0.000088
     1818.500000       0.000090
     1818.600000       0.000089
     1818.700000       0.000087
     1818.800000       0.000083
     1818.900000       0.000077
     1819.000000       0.000070
     1819.100000       0.000061
     1819.200000       0.000052
     1819.300000       0.000043
     1819.400000       0.000035
     1819.500000       0.000029
     1819.600000       0.000024
     1819.700000       0.000021
     1819.800000       0.000019
     1819.900000       0.000019
     1820.000000       0.000023
     1820.100000       0.000028
     1820.200000       0.000033
     1820.300000       0.000041
     1820.400000       0.000049
     1820.500000       0.000058
     1820.600000       0.000066
     1820.700000       0.000073
     1820.800000       0.000079
     1820.900000       0.000081
     1821.000000       0.000083
     1821.100000       0.000084
     1821.200000       0.000084
     1821.300000       0.000080
     1821.400000       0.000076
     1821.500000       0.000070
     1821.600000       0.000063
     1821.700000       0.000056
     1821.800000       0.000050
     1821.900000       0.000046
     1822.000000       0.000041
     1822.100000       0.000039
     1822.200000       0.000039
     1822.300000       0.000041
     1822.400000       0.000044
     1822.500000       0.000048
     1822.600000       0.000054
     1822.700000       0.000062
     1822.800000       0.000070
     1822.900000       0.000078
     1823.000000       0.000087
     1823.100000       0.000095
     1823.200000       0.000101
     1823.300000       0.000107
     1823.400000       0.000111
     1823.500000       0.000113
     1823.600000       0.000112
     1823.700000       0.000112
     1823.800000       0.000111
     1823.900000       0.000109
     1824.000000       0.000106
     1824.100000       0.000103
     1824.200000       0.000101
     1824.300000       0.000099
     1824.400000       0.000098
     1824.500000       0.000098
     1824.600000       0.000100
     1824.700000       0.000102
     1824.800000       0.000106
     1824.900000       0.000110
     1825.000000       0.000115
     1825.100000       0.000120
     1825.200000       0.000123
     1825.300000       0.000126
     1825.400000       0.000129
     1825.500000       0.000130
     1825.600000       0.000128
     1825.700000       0.000124
     1825.800000       0.000120
     1825.900000       0.000114
     1826.000000       0.000105
     1826.100000       0.000096
     1826.200000       0.000086
     1826.300000       0.000075
     1826.400000       0.000065
     1826.500000       0.000056
     1826.600000       0.000047
     1826.700000       0.000040
     1826.800000       0.000036
     1826.900000       0.000036
     1827.000000       0.000036
     1827.100000       0.000036
     1827.200000       0.000037
     1827.300000       0.000041
     1827.400000       0.000048
     1827.500000       0.000055
     1827.600000       0.000063
     1827.700000       0.000070
     1827.800000       0.000076
     1827.900000       0.000081
     1828.000000       0.000086
     1828.100000       0.000089
     1828.200000       0.000089
     1828.300000       0.000089
     1828.400000       0.000087
     1828.500000       0.000085
     1828.600000       0.000082
     1828.700000       0.000077
     1828.800000       0.000073
     1828.900000       0.000069
     1829.000000       0.000066
     1829.100000       0.000063
     1829.200000       0.000063
     1829.300000       0.000064
     1829.400000       0.000065
     1829.500000       0.000067
     1829.600000       0.000071
     1829.700000       0.000075
     1829.800000       0.000080
     1829.900000       0.000085
     1830.000000       0.000090
     1830.100000       0.000094
     1830.200000       0.000095
     1830.300000       0.000094
     1830.400000       0.000094
     1830.500000       0.000094
     1830.600000       0.000091
     1830.700000       0.000086
     1830.800000       0.000079
     1830.900000       0.000073
     1831.000000       0.000065
     1831.100000       0.000058
     1831.200000       0.000052
     1831.300000       0.000046
     1831.400000       0.000042
     1831.500000       0.000040
     1831.600000       0.000040
     1831.700000       0.000042
     1831.800000       0.000044
     1831.900000       0.000047
     1832.000000       0.000053
     1832.100000       0.000060
     1832.200000       0.000067
     1832.300000       0.000073
     1832.400000       0.000080
     1832.500000       0.000085
     1832.600000       0.000087
     1832.700000       0.000088
     1832.800000       0.000088
     1832.900000       0.000088
     1833.000000       0.000083
     1833.100000       0.000076
     1833.200000       0.000069
     1833.300000       0.000061
     1833.400000       0.000052
     1833.500000       0.000043
     1833.600000       0.000035
     1833.700000       0.000027
     1833.800000       0.000022
     1833.900000       0.000021
     1834.000000       0.000020
     1834.100000       0.000020
     1834.200000       0.000020
     1834.300000       0.000023
     1834.400000       0.000029
     1834.500000       0.000035
     1834.600000       0.000041
     1834.700000       0.000048
     1834.800000       0.000054
     1834.900000       0.000057
     1835.000000       0.000060
     1835.100000       0.000061
     1835.200000       0.000062
     1835.300000       0.000060
     1835.400000       0.000056
     1835.500000       0.000050
     1835.600000       0.000044
     1835.700000       0.000037
     1835.800000       0.000029
     1835.900000       0.000022
     1836.000000       0.000015
     1836.100000       0.000010
     1836.200000       0.000006
     1836.300000       0.000004
     1836.400000       0.000003
     1836.500000       0.000002
     1836.600000       0.000002
     1836.700000       0.000004
     1836.800000       0.000007
     1836.900000       0.000011
     1837.000000       0.000015
     1837.100000       0.000020
     1837.200000       0.000025
     1837.300000       0.000030
     1837.400000       0.000035
     1837.500000       0.000038
     1837.600000       0.000040
     1837.700000       0.000042
     1837.800000       0.000042
     1837.900000       0.000043
     1838.000000       0.000042
     1838.100000       0.000039
     1838.200000       0.000037
     1838.300000       0.000036
     1838.400000       0.000035
     1838.500000       0.000034
     1838.600000       0.000034
     1838.700000       0.000036
     1838.800000       0.000039
     1838.900000       0.000043
     1839.000000       0.000048
     1839.100000       0.000055
     1839.200000       0.000061
     1839.300000       0.000068
     1839.400000       0.000074
     1839.500000       0.000081
     1839.600000       0.000085
     1839.700000       0.000087
     1839.800000       0.000089
     1839.900000       0.000090
     1840.000000       0.000089
     1840.100000       0.000085
     1840.200000       0.000079
     1840.300000       0.000073
     1840.400000       0.000065
     1840.500000       0.000056
     1840.600000       0.000047
     1840.700000       0.000039
     1840.800000       0.000031
     1840.900000       0.000025
     1841.000000       0.000021
