11, channel 11 SRF extracted from AHI-9_SpectralResponsivity_Data.xlsx (release Oct 2013)
Number of data points:
1291
Wavenumber (cm-1)   Filter response
     1102.000000       0.000352
     1102.100000       0.000357
     1102.200000       0.000362
     1102.300000       0.000367
     1102.400000       0.000371
     1102.500000       0.000376
     1102.600000       0.000380
     1102.700000       0.000385
     1102.800000       0.000389
     1102.900000       0.000393
     1103.000000       0.000397
     1103.100000       0.000400
     1103.200000       0.000404
     1103.300000       0.000408
     1103.400000       0.000412
     1103.500000       0.000415
     1103.600000       0.000419
     1103.700000       0.000423
     1103.800000       0.000427
     1103.900000       0.000431
     1104.000000       0.000435
     1104.100000       0.000440
     1104.200000       0.000444
     1104.300000       0.000449
     1104.400000       0.000454
     1104.500000       0.000459
     1104.600000       0.000465
     1104.700000       0.000470
     1104.800000       0.000476
     1104.900000       0.000483
     1105.000000       0.000489
     1105.100000       0.000496
     1105.200000       0.000504
     1105.300000       0.000511
     1105.400000       0.000519
     1105.500000       0.000528
     1105.600000       0.000535
     1105.700000       0.000542
     1105.800000       0.000601
     1105.900000       0.000714
     1106.000000       0.000762
     1106.100000       0.000771
     1106.200000       0.000782
     1106.300000       0.000793
     1106.400000       0.000803
     1106.500000       0.000813
     1106.600000       0.000823
     1106.700000       0.000833
     1106.800000       0.000843
     1106.900000       0.000852
     1107.000000       0.000860
     1107.100000       0.000869
     1107.200000       0.000877
     1107.300000       0.000885
     1107.400000       0.000893
     1107.500000       0.000901
     1107.600000       0.000909
     1107.700000       0.000917
     1107.800000       0.000925
     1107.900000       0.000934
     1108.000000       0.000944
     1108.100000       0.000954
     1108.200000       0.000965
     1108.300000       0.000976
     1108.400000       0.000989
     1108.500000       0.001002
     1108.600000       0.001016
     1108.700000       0.001031
     1108.800000       0.001046
     1108.900000       0.001062
     1109.000000       0.001078
     1109.100000       0.001094
     1109.200000       0.001111
     1109.300000       0.001127
     1109.400000       0.001143
     1109.500000       0.001159
     1109.600000       0.001174
     1109.700000       0.001189
     1109.800000       0.001203
     1109.900000       0.001216
     1110.000000       0.001229
     1110.100000       0.001240
     1110.200000       0.001252
     1110.300000       0.001263
     1110.400000       0.001273
     1110.500000       0.001284
     1110.600000       0.001294
     1110.700000       0.001305
     1110.800000       0.001317
     1110.900000       0.001329
     1111.000000       0.001341
     1111.100000       0.001355
     1111.200000       0.001370
     1111.300000       0.001386
     1111.400000       0.001404
     1111.500000       0.001423
     1111.600000       0.001443
     1111.700000       0.001465
     1111.800000       0.001488
     1111.900000       0.001512
     1112.000000       0.001537
     1112.100000       0.001564
     1112.200000       0.001592
     1112.300000       0.001621
     1112.400000       0.001651
     1112.500000       0.001682
     1112.600000       0.001713
     1112.700000       0.001746
     1112.800000       0.001779
     1112.900000       0.001813
     1113.000000       0.001848
     1113.100000       0.001883
     1113.200000       0.001920
     1113.300000       0.001957
     1113.400000       0.001994
     1113.500000       0.002032
     1113.600000       0.002071
     1113.700000       0.002110
     1113.800000       0.002150
     1113.900000       0.002190
     1114.000000       0.002230
     1114.100000       0.002271
     1114.200000       0.002311
     1114.300000       0.002351
     1114.400000       0.002392
     1114.500000       0.002432
     1114.600000       0.002472
     1114.700000       0.002511
     1114.800000       0.002551
     1114.900000       0.002590
     1115.000000       0.002629
     1115.100000       0.002668
     1115.200000       0.002708
     1115.300000       0.002748
     1115.400000       0.002789
     1115.500000       0.002831
     1115.600000       0.002874
     1115.700000       0.002919
     1115.800000       0.002965
     1115.900000       0.003012
     1116.000000       0.003062
     1116.100000       0.003114
     1116.200000       0.003167
     1116.300000       0.003223
     1116.400000       0.003281
     1116.500000       0.003341
     1116.600000       0.003403
     1116.700000       0.003467
     1116.800000       0.003532
     1116.900000       0.003599
     1117.000000       0.003668
     1117.100000       0.003737
     1117.200000       0.003807
     1117.300000       0.003879
     1117.400000       0.003951
     1117.500000       0.004024
     1117.600000       0.004098
     1117.700000       0.004173
     1117.800000       0.004249
     1117.900000       0.004326
     1118.000000       0.004404
     1118.100000       0.004483
     1118.200000       0.004564
     1118.300000       0.004646
     1118.400000       0.004730
     1118.500000       0.004816
     1118.600000       0.004904
     1118.700000       0.004993
     1118.800000       0.005085
     1118.900000       0.005179
     1119.000000       0.005275
     1119.100000       0.005373
     1119.200000       0.005474
     1119.300000       0.005577
     1119.400000       0.005682
     1119.500000       0.005790
     1119.600000       0.005900
     1119.700000       0.006013
     1119.800000       0.006129
     1119.900000       0.006247
     1120.000000       0.006369
     1120.100000       0.006494
     1120.200000       0.006622
     1120.300000       0.006753
     1120.400000       0.006888
     1120.500000       0.007026
     1120.600000       0.007167
     1120.700000       0.007313
     1120.800000       0.007461
     1120.900000       0.007613
     1121.000000       0.007768
     1121.100000       0.007925
     1121.200000       0.008085
     1121.300000       0.008249
     1121.400000       0.008414
     1121.500000       0.008582
     1121.600000       0.008753
     1121.700000       0.008926
     1121.800000       0.009102
     1121.900000       0.009280
     1122.000000       0.009461
     1122.100000       0.009645
     1122.200000       0.009834
     1122.300000       0.010025
     1122.400000       0.010219
     1122.500000       0.010416
     1122.600000       0.010617
     1122.700000       0.010823
     1122.800000       0.011033
     1122.900000       0.011250
     1123.000000       0.011471
     1123.100000       0.011699
     1123.200000       0.011934
     1123.300000       0.012175
     1123.400000       0.012422
     1123.500000       0.012675
     1123.600000       0.012935
     1123.700000       0.013201
     1123.800000       0.013473
     1123.900000       0.013751
     1124.000000       0.014036
     1124.100000       0.014327
     1124.200000       0.014624
     1124.300000       0.014928
     1124.400000       0.015238
     1124.500000       0.015555
     1124.600000       0.015879
     1124.700000       0.016211
     1124.800000       0.016549
     1124.900000       0.016895
     1125.000000       0.017249
     1125.100000       0.017611
     1125.200000       0.017981
     1125.300000       0.018358
     1125.400000       0.018744
     1125.500000       0.019138
     1125.600000       0.019542
     1125.700000       0.019955
     1125.800000       0.020380
     1125.900000       0.020823
     1126.000000       0.021292
     1126.100000       0.021779
     1126.200000       0.022278
     1126.300000       0.022788
     1126.400000       0.023310
     1126.500000       0.023845
     1126.600000       0.024393
     1126.700000       0.024952
     1126.800000       0.025525
     1126.900000       0.026110
     1127.000000       0.026708
     1127.100000       0.027318
     1127.200000       0.027942
     1127.300000       0.028581
     1127.400000       0.029233
     1127.500000       0.029901
     1127.600000       0.030583
     1127.700000       0.031283
     1127.800000       0.032002
     1127.900000       0.032741
     1128.000000       0.033497
     1128.100000       0.034269
     1128.200000       0.035062
     1128.300000       0.035873
     1128.400000       0.036704
     1128.500000       0.037556
     1128.600000       0.038430
     1128.700000       0.039327
     1128.800000       0.040248
     1128.900000       0.041190
     1129.000000       0.042175
     1129.100000       0.043199
     1129.200000       0.044254
     1129.300000       0.045336
     1129.400000       0.046447
     1129.500000       0.047588
     1129.600000       0.048757
     1129.700000       0.049957
     1129.800000       0.051187
     1129.900000       0.052452
     1130.000000       0.053752
     1130.100000       0.055085
     1130.200000       0.056453
     1130.300000       0.057859
     1130.400000       0.059301
     1130.500000       0.060777
     1130.600000       0.062293
     1130.700000       0.063859
     1130.800000       0.065472
     1130.900000       0.067126
     1131.000000       0.068822
     1131.100000       0.070562
     1131.200000       0.072347
     1131.300000       0.074185
     1131.400000       0.076078
     1131.500000       0.078024
     1131.600000       0.080022
     1131.700000       0.082069
     1131.800000       0.084174
     1131.900000       0.086337
     1132.000000       0.088552
     1132.100000       0.090827
     1132.200000       0.093162
     1132.300000       0.095559
     1132.400000       0.098020
     1132.500000       0.100545
     1132.600000       0.103132
     1132.700000       0.105781
     1132.800000       0.108495
     1132.900000       0.111276
     1133.000000       0.114125
     1133.100000       0.117050
     1133.200000       0.120052
     1133.300000       0.123129
     1133.400000       0.126282
     1133.500000       0.129537
     1133.600000       0.132868
     1133.700000       0.136288
     1133.800000       0.139801
     1133.900000       0.143398
     1134.000000       0.147091
     1134.100000       0.150873
     1134.200000       0.154746
     1134.300000       0.158714
     1134.400000       0.162778
     1134.500000       0.166935
     1134.600000       0.171196
     1134.700000       0.175563
     1134.800000       0.180023
     1134.900000       0.184585
     1135.000000       0.189250
     1135.100000       0.194016
     1135.200000       0.198886
     1135.300000       0.203887
     1135.400000       0.208999
     1135.500000       0.214213
     1135.600000       0.219530
     1135.700000       0.224960
     1135.800000       0.230513
     1135.900000       0.236178
     1136.000000       0.241952
     1136.100000       0.247836
     1136.200000       0.253834
     1136.300000       0.259936
     1136.400000       0.266143
     1136.500000       0.272454
     1136.600000       0.278870
     1136.700000       0.285380
     1136.800000       0.291979
     1136.900000       0.298664
     1137.000000       0.305433
     1137.100000       0.312285
     1137.200000       0.319218
     1137.300000       0.326231
     1137.400000       0.333329
     1137.500000       0.340508
     1137.600000       0.347764
     1137.700000       0.355101
     1137.800000       0.362515
     1137.900000       0.370014
     1138.000000       0.377596
     1138.100000       0.385262
     1138.200000       0.393010
     1138.300000       0.400843
     1138.400000       0.408759
     1138.500000       0.416741
     1138.600000       0.424791
     1138.700000       0.432906
     1138.800000       0.441059
     1138.900000       0.449304
     1139.000000       0.457599
     1139.100000       0.465927
     1139.200000       0.474308
     1139.300000       0.482699
     1139.400000       0.491104
     1139.500000       0.499533
     1139.600000       0.507986
     1139.700000       0.516424
     1139.800000       0.524865
     1139.900000       0.533303
     1140.000000       0.541728
     1140.100000       0.550134
     1140.200000       0.558524
     1140.300000       0.566888
     1140.400000       0.575223
     1140.500000       0.583536
     1140.600000       0.591821
     1140.700000       0.600066
     1140.800000       0.608276
     1140.900000       0.616467
     1141.000000       0.624577
     1141.100000       0.632657
     1141.200000       0.640703
     1141.300000       0.648704
     1141.400000       0.656651
     1141.500000       0.664548
     1141.600000       0.672383
     1141.700000       0.680154
     1141.800000       0.687880
     1141.900000       0.695563
     1142.000000       0.703183
     1142.100000       0.710731
     1142.200000       0.718207
     1142.300000       0.725618
     1142.400000       0.732952
     1142.500000       0.740197
     1142.600000       0.747350
     1142.700000       0.754437
     1142.800000       0.761440
     1142.900000       0.768295
     1143.000000       0.775005
     1143.100000       0.781622
     1143.200000       0.788093
     1143.300000       0.794433
     1143.400000       0.800666
     1143.500000       0.806810
     1143.600000       0.812724
     1143.700000       0.818508
     1143.800000       0.824177
     1143.900000       0.829700
     1144.000000       0.835113
     1144.100000       0.840464
     1144.200000       0.845714
     1144.300000       0.850816
     1144.400000       0.855780
     1144.500000       0.860640
     1144.600000       0.865393
     1144.700000       0.870046
     1144.800000       0.874621
     1144.900000       0.879131
     1145.000000       0.883572
     1145.100000       0.887922
     1145.200000       0.892161
     1145.300000       0.896295
     1145.400000       0.900324
     1145.500000       0.904257
     1145.600000       0.908088
     1145.700000       0.911814
     1145.800000       0.915432
     1145.900000       0.918953
     1146.000000       0.922376
     1146.100000       0.925712
     1146.200000       0.928960
     1146.300000       0.932120
     1146.400000       0.935191
     1146.500000       0.938168
     1146.600000       0.941045
     1146.700000       0.943824
     1146.800000       0.946510
     1146.900000       0.949114
     1147.000000       0.951627
     1147.100000       0.954043
     1147.200000       0.956369
     1147.300000       0.958577
     1147.400000       0.960639
     1147.500000       0.962595
     1147.600000       0.964445
     1147.700000       0.966177
     1147.800000       0.967831
     1147.900000       0.969412
     1148.000000       0.970884
     1148.100000       0.972264
     1148.200000       0.973431
     1148.300000       0.974487
     1148.400000       0.975460
     1148.500000       0.976357
     1148.600000       0.977171
     1148.700000       0.977902
     1148.800000       0.978554
     1148.900000       0.979136
     1149.000000       0.979664
     1149.100000       0.980143
     1149.200000       0.980600
     1149.300000       0.981055
     1149.400000       0.981519
     1149.500000       0.981990
     1149.600000       0.982425
     1149.700000       0.982825
     1149.800000       0.983201
     1149.900000       0.983579
     1150.000000       0.983979
     1150.100000       0.984423
     1150.200000       0.984928
     1150.300000       0.985495
     1150.400000       0.986112
     1150.500000       0.986766
     1150.600000       0.987442
     1150.700000       0.988123
     1150.800000       0.988796
     1150.900000       0.989452
     1151.000000       0.990083
     1151.100000       0.990675
     1151.200000       0.991212
     1151.300000       0.991696
     1151.400000       0.992126
     1151.500000       0.992487
     1151.600000       0.992793
     1151.700000       0.992998
     1151.800000       0.993124
     1151.900000       0.993172
     1152.000000       0.993169
     1152.100000       0.993127
     1152.200000       0.993023
     1152.300000       0.992913
     1152.400000       0.992807
     1152.500000       0.992688
     1152.600000       0.992566
     1152.700000       0.992460
     1152.800000       0.992375
     1152.900000       0.992319
     1153.000000       0.992290
     1153.100000       0.992305
     1153.200000       0.992358
     1153.300000       0.992467
     1153.400000       0.992629
     1153.500000       0.992796
     1153.600000       0.992974
     1153.700000       0.993204
     1153.800000       0.993564
     1153.900000       0.993946
     1154.000000       0.994303
     1154.100000       0.994650
     1154.200000       0.995024
     1154.300000       0.995416
     1154.400000       0.995808
     1154.500000       0.996196
     1154.600000       0.996614
     1154.700000       0.997019
     1154.800000       0.997374
     1154.900000       0.997700
     1155.000000       0.998020
     1155.100000       0.998326
     1155.200000       0.998616
     1155.300000       0.998888
     1155.400000       0.999137
     1155.500000       0.999362
     1155.600000       0.999559
     1155.700000       0.999726
     1155.800000       0.999862
     1155.900000       0.999960
     1156.000000       0.999959
     1156.100000       0.999765
     1156.200000       0.999490
     1156.300000       0.999146
     1156.400000       0.998733
     1156.500000       0.998267
     1156.600000       0.997756
     1156.700000       0.997226
     1156.800000       0.996649
     1156.900000       0.996026
     1157.000000       0.995371
     1157.100000       0.994708
     1157.200000       0.994051
     1157.300000       0.993417
     1157.400000       0.992822
     1157.500000       0.992233
     1157.600000       0.991618
     1157.700000       0.990980
     1157.800000       0.990325
     1157.900000       0.989662
     1158.000000       0.989012
     1158.100000       0.988383
     1158.200000       0.987782
     1158.300000       0.987184
     1158.400000       0.986547
     1158.500000       0.985864
     1158.600000       0.985141
     1158.700000       0.984423
     1158.800000       0.983728
     1158.900000       0.983064
     1159.000000       0.982438
     1159.100000       0.981840
     1159.200000       0.981248
     1159.300000       0.980663
     1159.400000       0.980103
     1159.500000       0.979558
     1159.600000       0.979021
     1159.700000       0.978480
     1159.800000       0.977922
     1159.900000       0.977331
     1160.000000       0.976699
     1160.100000       0.976015
     1160.200000       0.975258
     1160.300000       0.974466
     1160.400000       0.973669
     1160.500000       0.972841
     1160.600000       0.971961
     1160.700000       0.971051
     1160.800000       0.970119
     1160.900000       0.969191
     1161.000000       0.968305
     1161.100000       0.967454
     1161.200000       0.966658
     1161.300000       0.965922
     1161.400000       0.965243
     1161.500000       0.964618
     1161.600000       0.964048
     1161.700000       0.963534
     1161.800000       0.963069
     1161.900000       0.962639
     1162.000000       0.962231
     1162.100000       0.961828
     1162.200000       0.961413
     1162.300000       0.960974
     1162.400000       0.960494
     1162.500000       0.959953
     1162.600000       0.959359
     1162.700000       0.958701
     1162.800000       0.957984
     1162.900000       0.957235
     1163.000000       0.956448
     1163.100000       0.955637
     1163.200000       0.954811
     1163.300000       0.953982
     1163.400000       0.953161
     1163.500000       0.952358
     1163.600000       0.951582
     1163.700000       0.950844
     1163.800000       0.950155
     1163.900000       0.949516
     1164.000000       0.948928
     1164.100000       0.948389
     1164.200000       0.947901
     1164.300000       0.947458
     1164.400000       0.947054
     1164.500000       0.946678
     1164.600000       0.946319
     1164.700000       0.945970
     1164.800000       0.945625
     1164.900000       0.945281
     1165.000000       0.944928
     1165.100000       0.944561
     1165.200000       0.944181
     1165.300000       0.943784
     1165.400000       0.943369
     1165.500000       0.942941
     1165.600000       0.942507
     1165.700000       0.942074
     1165.800000       0.941641
     1165.900000       0.941210
     1166.000000       0.940802
     1166.100000       0.940418
     1166.200000       0.940060
     1166.300000       0.939736
     1166.400000       0.939463
     1166.500000       0.939234
     1166.600000       0.939048
     1166.700000       0.938909
     1166.800000       0.938819
     1166.900000       0.938777
     1167.000000       0.938795
     1167.100000       0.938851
     1167.200000       0.938931
     1167.300000       0.939034
     1167.400000       0.939154
     1167.500000       0.939267
     1167.600000       0.939379
     1167.700000       0.939488
     1167.800000       0.939580
     1167.900000       0.939650
     1168.000000       0.939699
     1168.100000       0.939734
     1168.200000       0.939757
     1168.300000       0.939774
     1168.400000       0.939797
     1168.500000       0.939835
     1168.600000       0.939898
     1168.700000       0.939993
     1168.800000       0.940126
     1168.900000       0.940309
     1169.000000       0.940541
     1169.100000       0.940814
     1169.200000       0.941134
     1169.300000       0.941500
     1169.400000       0.941886
     1169.500000       0.942288
     1169.600000       0.942695
     1169.700000       0.943091
     1169.800000       0.943466
     1169.900000       0.943808
     1170.000000       0.944122
     1170.100000       0.944388
     1170.200000       0.944614
     1170.300000       0.944803
     1170.400000       0.944958
     1170.500000       0.945080
     1170.600000       0.945189
     1170.700000       0.945297
     1170.800000       0.945423
     1170.900000       0.945571
     1171.000000       0.945755
     1171.100000       0.945993
     1171.200000       0.946293
     1171.300000       0.946639
     1171.400000       0.947031
     1171.500000       0.947460
     1171.600000       0.947919
     1171.700000       0.948394
     1171.800000       0.948868
     1171.900000       0.949319
     1172.000000       0.949724
     1172.100000       0.950071
     1172.200000       0.950356
     1172.300000       0.950575
     1172.400000       0.950672
     1172.500000       0.950696
     1172.600000       0.950653
     1172.700000       0.950553
     1172.800000       0.950408
     1172.900000       0.950228
     1173.000000       0.950038
     1173.100000       0.949855
     1173.200000       0.949694
     1173.300000       0.949563
     1173.400000       0.949473
     1173.500000       0.949431
     1173.600000       0.949455
     1173.700000       0.949544
     1173.800000       0.949685
     1173.900000       0.949871
     1174.000000       0.950095
     1174.100000       0.950337
     1174.200000       0.950578
     1174.300000       0.950806
     1174.400000       0.951014
     1174.500000       0.951187
     1174.600000       0.951320
     1174.700000       0.951380
     1174.800000       0.951389
     1174.900000       0.951330
     1175.000000       0.951196
     1175.100000       0.950992
     1175.200000       0.950732
     1175.300000       0.950436
     1175.400000       0.950106
     1175.500000       0.949747
     1175.600000       0.949364
     1175.700000       0.948967
     1175.800000       0.948567
     1175.900000       0.948178
     1176.000000       0.947812
     1176.100000       0.947472
     1176.200000       0.947161
     1176.300000       0.946882
     1176.400000       0.946631
     1176.500000       0.946394
     1176.600000       0.946166
     1176.700000       0.945939
     1176.800000       0.945703
     1176.900000       0.945450
     1177.000000       0.945169
     1177.100000       0.944858
     1177.200000       0.944511
     1177.300000       0.944122
     1177.400000       0.943688
     1177.500000       0.943214
     1177.600000       0.942701
     1177.700000       0.942151
     1177.800000       0.941575
     1177.900000       0.941009
     1178.000000       0.940485
     1178.100000       0.939980
     1178.200000       0.939510
     1178.300000       0.939074
     1178.400000       0.938671
     1178.500000       0.938312
     1178.600000       0.937992
     1178.700000       0.937717
     1178.800000       0.937501
     1178.900000       0.937344
     1179.000000       0.937220
     1179.100000       0.937115
     1179.200000       0.936989
     1179.300000       0.936834
     1179.400000       0.936643
     1179.500000       0.936415
     1179.600000       0.936129
     1179.700000       0.935775
     1179.800000       0.935340
     1179.900000       0.934816
     1180.000000       0.934208
     1180.100000       0.933512
     1180.200000       0.932736
     1180.300000       0.931895
     1180.400000       0.931003
     1180.500000       0.930075
     1180.600000       0.929126
     1180.700000       0.928166
     1180.800000       0.927201
     1180.900000       0.926235
     1181.000000       0.925275
     1181.100000       0.924321
     1181.200000       0.923373
     1181.300000       0.922430
     1181.400000       0.921475
     1181.500000       0.920492
     1181.600000       0.919464
     1181.700000       0.918359
     1181.800000       0.917171
     1181.900000       0.915889
     1182.000000       0.914499
     1182.100000       0.913008
     1182.200000       0.911423
     1182.300000       0.909729
     1182.400000       0.907925
     1182.500000       0.906025
     1182.600000       0.904023
     1182.700000       0.901924
     1182.800000       0.899736
     1182.900000       0.897446
     1183.000000       0.895024
     1183.100000       0.892170
     1183.200000       0.889025
     1183.300000       0.885779
     1183.400000       0.882594
     1183.500000       0.879291
     1183.600000       0.875888
     1183.700000       0.872423
     1183.800000       0.868851
     1183.900000       0.865151
     1184.000000       0.861316
     1184.100000       0.857348
     1184.200000       0.853254
     1184.300000       0.849037
     1184.400000       0.844672
     1184.500000       0.840203
     1184.600000       0.835607
     1184.700000       0.830873
     1184.800000       0.825994
     1184.900000       0.820985
     1185.000000       0.815856
     1185.100000       0.810620
     1185.200000       0.805267
     1185.300000       0.799807
     1185.400000       0.794234
     1185.500000       0.788532
     1185.600000       0.782713
     1185.700000       0.776805
     1185.800000       0.770851
     1185.900000       0.764768
     1186.000000       0.758622
     1186.100000       0.752413
     1186.200000       0.746054
     1186.300000       0.739600
     1186.400000       0.733055
     1186.500000       0.726415
     1186.600000       0.719655
     1186.700000       0.712812
     1186.800000       0.705908
     1186.900000       0.698871
     1187.000000       0.691737
     1187.100000       0.684514
     1187.200000       0.677205
     1187.300000       0.669813
     1187.400000       0.662341
     1187.500000       0.654791
     1187.600000       0.647171
     1187.700000       0.639466
     1187.800000       0.631681
     1187.900000       0.623847
     1188.000000       0.615955
     1188.100000       0.608011
     1188.200000       0.600023
     1188.300000       0.592009
     1188.400000       0.583957
     1188.500000       0.575871
     1188.600000       0.567778
     1188.700000       0.559678
     1188.800000       0.551579
     1188.900000       0.543492
     1189.000000       0.535397
     1189.100000       0.527304
     1189.200000       0.519220
     1189.300000       0.511148
     1189.400000       0.503083
     1189.500000       0.495029
     1189.600000       0.487000
     1189.700000       0.478976
     1189.800000       0.470966
     1189.900000       0.462981
     1190.000000       0.455036
     1190.100000       0.447114
     1190.200000       0.439218
     1190.300000       0.431360
     1190.400000       0.423529
     1190.500000       0.415730
     1190.600000       0.407974
     1190.700000       0.400281
     1190.800000       0.392644
     1190.900000       0.385056
     1191.000000       0.377514
     1191.100000       0.370038
     1191.200000       0.362624
     1191.300000       0.355273
     1191.400000       0.348008
     1191.500000       0.340827
     1191.600000       0.333728
     1191.700000       0.326721
     1191.800000       0.319800
     1191.900000       0.312969
     1192.000000       0.306221
     1192.100000       0.299562
     1192.200000       0.292993
     1192.300000       0.286515
     1192.400000       0.280132
     1192.500000       0.273843
     1192.600000       0.267656
     1192.700000       0.261575
     1192.800000       0.255596
     1192.900000       0.249713
     1193.000000       0.243915
     1193.100000       0.238201
     1193.200000       0.232563
     1193.300000       0.227011
     1193.400000       0.221551
     1193.500000       0.216186
     1193.600000       0.210919
     1193.700000       0.205749
     1193.800000       0.200676
     1193.900000       0.195692
     1194.000000       0.190808
     1194.100000       0.186023
     1194.200000       0.181341
     1194.300000       0.176754
     1194.400000       0.172269
     1194.500000       0.167883
     1194.600000       0.163601
     1194.700000       0.159417
     1194.800000       0.155325
     1194.900000       0.151330
     1195.000000       0.147434
     1195.100000       0.143635
     1195.200000       0.139932
     1195.300000       0.136320
     1195.400000       0.132797
     1195.500000       0.129370
     1195.600000       0.126024
     1195.700000       0.122766
     1195.800000       0.119592
     1195.900000       0.116496
     1196.000000       0.113476
     1196.100000       0.110530
     1196.200000       0.107653
     1196.300000       0.104845
     1196.400000       0.102114
     1196.500000       0.099450
     1196.600000       0.096857
     1196.700000       0.094334
     1196.800000       0.091871
     1196.900000       0.089475
     1197.000000       0.087140
     1197.100000       0.084866
     1197.200000       0.082652
     1197.300000       0.080498
     1197.400000       0.078401
     1197.500000       0.076360
     1197.600000       0.074373
     1197.700000       0.072444
     1197.800000       0.070565
     1197.900000       0.068738
     1198.000000       0.066960
     1198.100000       0.065230
     1198.200000       0.063550
     1198.300000       0.061920
     1198.400000       0.060335
     1198.500000       0.058789
     1198.600000       0.057286
     1198.700000       0.055820
     1198.800000       0.054392
     1198.900000       0.053001
     1199.000000       0.051650
     1199.100000       0.050334
     1199.200000       0.049053
     1199.300000       0.047808
     1199.400000       0.046602
     1199.500000       0.045430
     1199.600000       0.044294
     1199.700000       0.043190
     1199.800000       0.042114
     1199.900000       0.041064
     1200.000000       0.040044
     1200.100000       0.039050
     1200.200000       0.038083
     1200.300000       0.037142
     1200.400000       0.036226
     1200.500000       0.035335
     1200.600000       0.034468
     1200.700000       0.033624
     1200.800000       0.032803
     1200.900000       0.032005
     1201.000000       0.031229
     1201.100000       0.030475
     1201.200000       0.029742
     1201.300000       0.029030
     1201.400000       0.028339
     1201.500000       0.027668
     1201.600000       0.027021
     1201.700000       0.026392
     1201.800000       0.025782
     1201.900000       0.025189
     1202.000000       0.024611
     1202.100000       0.024049
     1202.200000       0.023501
     1202.300000       0.022967
     1202.400000       0.022447
     1202.500000       0.021938
     1202.600000       0.021442
     1202.700000       0.020958
     1202.800000       0.020485
     1202.900000       0.020023
     1203.000000       0.019573
     1203.100000       0.019131
     1203.200000       0.018700
     1203.300000       0.018281
     1203.400000       0.017874
     1203.500000       0.017476
     1203.600000       0.017087
     1203.700000       0.016708
     1203.800000       0.016339
     1203.900000       0.015980
     1204.000000       0.015630
     1204.100000       0.015289
     1204.200000       0.014958
     1204.300000       0.014635
     1204.400000       0.014320
     1204.500000       0.014014
     1204.600000       0.013717
     1204.700000       0.013427
     1204.800000       0.013146
     1204.900000       0.012872
     1205.000000       0.012604
     1205.100000       0.012343
     1205.200000       0.012089
     1205.300000       0.011841
     1205.400000       0.011598
     1205.500000       0.011362
     1205.600000       0.011131
     1205.700000       0.010906
     1205.800000       0.010687
     1205.900000       0.010473
     1206.000000       0.010263
     1206.100000       0.010059
     1206.200000       0.009861
     1206.300000       0.009667
     1206.400000       0.009479
     1206.500000       0.009295
     1206.600000       0.009117
     1206.700000       0.008945
     1206.800000       0.008778
     1206.900000       0.008616
     1207.000000       0.008457
     1207.100000       0.008301
     1207.200000       0.008149
     1207.300000       0.008000
     1207.400000       0.007854
     1207.500000       0.007710
     1207.600000       0.007569
     1207.700000       0.007430
     1207.800000       0.007294
     1207.900000       0.007160
     1208.000000       0.007028
     1208.100000       0.006898
     1208.200000       0.006772
     1208.300000       0.006647
     1208.400000       0.006526
     1208.500000       0.006407
     1208.600000       0.006292
     1208.700000       0.006179
     1208.800000       0.006069
     1208.900000       0.005962
     1209.000000       0.005858
     1209.100000       0.005757
     1209.200000       0.005660
     1209.300000       0.005564
     1209.400000       0.005472
     1209.500000       0.005381
     1209.600000       0.005293
     1209.700000       0.005206
     1209.800000       0.005121
     1209.900000       0.005037
     1210.000000       0.004954
     1210.100000       0.004873
     1210.200000       0.004792
     1210.300000       0.004713
     1210.400000       0.004634
     1210.500000       0.004557
     1210.600000       0.004481
     1210.700000       0.004406
     1210.800000       0.004333
     1210.900000       0.004263
     1211.000000       0.004194
     1211.100000       0.004127
     1211.200000       0.004063
     1211.300000       0.004001
     1211.400000       0.003942
     1211.500000       0.003885
     1211.600000       0.003831
     1211.700000       0.003779
     1211.800000       0.003729
     1211.900000       0.003681
     1212.000000       0.003633
     1212.100000       0.003587
     1212.200000       0.003541
     1212.300000       0.003496
     1212.400000       0.003451
     1212.500000       0.003405
     1212.600000       0.003358
     1212.700000       0.003311
     1212.800000       0.003264
     1212.900000       0.003216
     1213.000000       0.003167
     1213.100000       0.003118
     1213.200000       0.003070
     1213.300000       0.003021
     1213.400000       0.002974
     1213.500000       0.002927
     1213.600000       0.002882
     1213.700000       0.002839
     1213.800000       0.002798
     1213.900000       0.002760
     1214.000000       0.002723
     1214.100000       0.002690
     1214.200000       0.002659
     1214.300000       0.002630
     1214.400000       0.002603
     1214.500000       0.002579
     1214.600000       0.002556
     1214.700000       0.002534
     1214.800000       0.002513
     1214.900000       0.002493
     1215.000000       0.002472
     1215.100000       0.002452
     1215.200000       0.002431
     1215.300000       0.002409
     1215.400000       0.002386
     1215.500000       0.002362
     1215.600000       0.002338
     1215.700000       0.002312
     1215.800000       0.002285
     1215.900000       0.002258
     1216.000000       0.002231
     1216.100000       0.002203
     1216.200000       0.002176
     1216.300000       0.002148
     1216.400000       0.002122
     1216.500000       0.002096
     1216.600000       0.002071
     1216.700000       0.002047
     1216.800000       0.002025
     1216.900000       0.002003
     1217.000000       0.001983
     1217.100000       0.001964
     1217.200000       0.001946
     1217.300000       0.001929
     1217.400000       0.001912
     1217.500000       0.001897
     1217.600000       0.001882
     1217.700000       0.001867
     1217.800000       0.001852
     1217.900000       0.001838
     1218.000000       0.001824
     1218.100000       0.001809
     1218.200000       0.001795
     1218.300000       0.001780
     1218.400000       0.001765
     1218.500000       0.001750
     1218.600000       0.001735
     1218.700000       0.001719
     1218.800000       0.001703
     1218.900000       0.001687
     1219.000000       0.001670
     1219.100000       0.001654
     1219.200000       0.001637
     1219.300000       0.001619
     1219.400000       0.001601
     1219.500000       0.001583
     1219.600000       0.001565
     1219.700000       0.001546
     1219.800000       0.001527
     1219.900000       0.001507
     1220.000000       0.001488
     1220.100000       0.001468
     1220.200000       0.001448
     1220.300000       0.001428
     1220.400000       0.001409
     1220.500000       0.001389
     1220.600000       0.001370
     1220.700000       0.001351
     1220.800000       0.001333
     1220.900000       0.001316
     1221.000000       0.001300
     1221.100000       0.001284
     1221.200000       0.001270
     1221.300000       0.001256
     1221.400000       0.001244
     1221.500000       0.001233
     1221.600000       0.001222
     1221.700000       0.001213
     1221.800000       0.001205
     1221.900000       0.001198
     1222.000000       0.001192
     1222.100000       0.001181
     1222.200000       0.001151
     1222.300000       0.000929
     1222.400000       0.000874
     1222.500000       0.000874
     1222.600000       0.000871
     1222.700000       0.000867
     1222.800000       0.000863
     1222.900000       0.000858
     1223.000000       0.000854
     1223.100000       0.000849
     1223.200000       0.000843
     1223.300000       0.000837
     1223.400000       0.000830
     1223.500000       0.000823
     1223.600000       0.000815
     1223.700000       0.000806
     1223.800000       0.000797
     1223.900000       0.000788
     1224.000000       0.000778
     1224.100000       0.000768
     1224.200000       0.000758
     1224.300000       0.000749
     1224.400000       0.000739
     1224.500000       0.000729
     1224.600000       0.000720
     1224.700000       0.000710
     1224.800000       0.000702
     1224.900000       0.000694
     1225.000000       0.000686
     1225.100000       0.000678
     1225.200000       0.000671
     1225.300000       0.000664
     1225.400000       0.000657
     1225.500000       0.000651
     1225.600000       0.000644
     1225.700000       0.000637
     1225.800000       0.000631
     1225.900000       0.000623
     1226.000000       0.000616
     1226.100000       0.000608
     1226.200000       0.000600
     1226.300000       0.000592
     1226.400000       0.000583
     1226.500000       0.000575
     1226.600000       0.000566
     1226.700000       0.000557
     1226.800000       0.000549
     1226.900000       0.000541
     1227.000000       0.000534
     1227.100000       0.000527
     1227.200000       0.000521
     1227.300000       0.000516
     1227.400000       0.000512
     1227.500000       0.000509
     1227.600000       0.000506
     1227.700000       0.000505
     1227.800000       0.000505
     1227.900000       0.000505
     1228.000000       0.000506
     1228.100000       0.000507
     1228.200000       0.000508
     1228.300000       0.000509
     1228.400000       0.000510
     1228.500000       0.000510
     1228.600000       0.000510
     1228.700000       0.000509
     1228.800000       0.000507
     1228.900000       0.000504
     1229.000000       0.000501
     1229.100000       0.000497
     1229.200000       0.000492
     1229.300000       0.000487
     1229.400000       0.000481
     1229.500000       0.000475
     1229.600000       0.000469
     1229.700000       0.000463
     1229.800000       0.000458
     1229.900000       0.000452
     1230.000000       0.000448
     1230.100000       0.000444
     1230.200000       0.000440
     1230.300000       0.000438
     1230.400000       0.000436
     1230.500000       0.000434
     1230.600000       0.000434
     1230.700000       0.000434
     1230.800000       0.000434
     1230.900000       0.000435
     1231.000000       0.000436
