  16  ,metop_02_hirs_16.flt
Number of data points:
624
Wavenumber (cm-1)   Filter response
     2214.900000       0.000000
     2215.000000       0.001540
     2215.100000       0.001624
     2215.200000       0.001707
     2215.300000       0.001790
     2215.400000       0.001871
     2215.500000       0.001952
     2215.600000       0.002033
     2215.700000       0.002115
     2215.800000       0.002197
     2215.900000       0.002281
     2216.000000       0.002367
     2216.100000       0.002455
     2216.200000       0.002547
     2216.300000       0.002642
     2216.400000       0.002740
     2216.500000       0.002842
     2216.600000       0.002949
     2216.700000       0.003059
     2216.800000       0.003174
     2216.900000       0.003292
     2217.000000       0.003413
     2217.100000       0.003537
     2217.200000       0.003664
     2217.300000       0.003792
     2217.400000       0.003921
     2217.500000       0.004051
     2217.600000       0.004181
     2217.700000       0.004309
     2217.800000       0.004436
     2217.900000       0.004560
     2218.000000       0.004680
     2218.100000       0.004796
     2218.200000       0.004906
     2218.300000       0.005012
     2218.400000       0.005110
     2218.500000       0.005202
     2218.600000       0.005286
     2218.700000       0.005362
     2218.800000       0.005429
     2218.900000       0.005488
     2219.000000       0.005537
     2219.100000       0.005577
     2219.200000       0.005608
     2219.300000       0.005630
     2219.400000       0.005642
     2219.500000       0.005646
     2219.600000       0.005641
     2219.700000       0.005627
     2219.800000       0.005606
     2219.900000       0.005577
     2220.000000       0.005542
     2220.100000       0.005502
     2220.200000       0.005457
     2220.300000       0.005408
     2220.400000       0.005356
     2220.500000       0.005303
     2220.600000       0.005249
     2220.700000       0.005197
     2220.800000       0.005147
     2220.900000       0.005100
     2221.000000       0.005058
     2221.100000       0.005023
     2221.200000       0.004996
     2221.300000       0.004977
     2221.400000       0.004969
     2221.500000       0.004973
     2221.600000       0.004989
     2221.700000       0.005018
     2221.800000       0.005063
     2221.900000       0.005122
     2222.000000       0.005197
     2222.100000       0.005289
     2222.200000       0.005397
     2222.300000       0.005523
     2222.400000       0.005666
     2222.500000       0.005828
     2222.600000       0.006007
     2222.700000       0.006204
     2222.800000       0.006419
     2222.900000       0.006653
     2223.000000       0.006905
     2223.100000       0.007176
     2223.200000       0.007465
     2223.300000       0.007773
     2223.400000       0.008099
     2223.500000       0.008445
     2223.600000       0.008808
     2223.700000       0.009191
     2223.800000       0.009592
     2223.900000       0.010011
     2224.000000       0.010448
     2224.100000       0.010904
     2224.200000       0.011377
     2224.300000       0.011867
     2224.400000       0.012375
     2224.500000       0.012899
     2224.600000       0.013439
     2224.700000       0.013995
     2224.800000       0.014566
     2224.900000       0.015153
     2225.000000       0.015754
     2225.100000       0.016369
     2225.200000       0.016997
     2225.300000       0.017639
     2225.400000       0.018294
     2225.500000       0.018962
     2225.600000       0.019643
     2225.700000       0.020337
     2225.800000       0.021043
     2225.900000       0.021763
     2226.000000       0.022496
     2226.100000       0.023243
     2226.200000       0.024005
     2226.300000       0.024782
     2226.400000       0.025575
     2226.500000       0.026387
     2226.600000       0.027219
     2226.700000       0.028071
     2226.800000       0.028947
     2226.900000       0.029848
     2227.000000       0.030776
     2227.100000       0.031735
     2227.200000       0.032728
     2227.300000       0.033756
     2227.400000       0.034825
     2227.500000       0.035937
     2227.600000       0.037096
     2227.700000       0.038307
     2227.800000       0.039275
     2227.900000       0.040578
     2228.000000       0.041946
     2228.100000       0.043383
     2228.200000       0.044895
     2228.300000       0.046487
     2228.400000       0.048165
     2228.500000       0.049935
     2228.600000       0.051802
     2228.700000       0.053774
     2228.800000       0.055856
     2228.900000       0.058055
     2229.000000       0.060377
     2229.100000       0.062828
     2229.200000       0.065416
     2229.300000       0.068146
     2229.400000       0.071026
     2229.500000       0.074061
     2229.600000       0.077259
     2229.700000       0.080626
     2229.800000       0.084167
     2229.900000       0.087891
     2230.000000       0.091801
     2230.100000       0.095911
     2230.200000       0.100220
     2230.300000       0.104730
     2230.400000       0.109460
     2230.500000       0.114400
     2230.600000       0.119560
     2230.700000       0.124940
     2230.800000       0.130550
     2230.900000       0.136400
     2231.000000       0.142480
     2231.100000       0.148800
     2231.200000       0.155350
     2231.300000       0.162160
     2231.400000       0.169200
     2231.500000       0.176490
     2231.600000       0.184030
     2231.700000       0.191810
     2231.800000       0.199840
     2231.900000       0.208110
     2232.000000       0.216620
     2232.100000       0.225370
     2232.200000       0.234360
     2232.300000       0.243580
     2232.400000       0.253030
     2232.500000       0.262710
     2232.600000       0.272610
     2232.700000       0.282720
     2232.800000       0.293040
     2232.900000       0.303560
     2233.000000       0.314270
     2233.100000       0.325170
     2233.200000       0.336250
     2233.300000       0.347500
     2233.400000       0.358900
     2233.500000       0.370460
     2233.600000       0.382160
     2233.700000       0.393980
     2233.800000       0.405920
     2233.900000       0.417970
     2234.000000       0.430110
     2234.100000       0.442330
     2234.200000       0.454620
     2234.300000       0.466970
     2234.400000       0.479360
     2234.500000       0.491780
     2234.600000       0.504220
     2234.700000       0.516660
     2234.800000       0.529100
     2234.900000       0.541520
     2235.000000       0.553900
     2235.100000       0.566230
     2235.200000       0.578500
     2235.300000       0.590700
     2235.400000       0.602810
     2235.500000       0.614820
     2235.600000       0.626710
     2235.700000       0.638490
     2235.800000       0.650120
     2235.900000       0.661610
     2236.000000       0.672950
     2236.100000       0.684120
     2236.200000       0.695110
     2236.300000       0.705910
     2236.400000       0.716510
     2236.500000       0.726910
     2236.600000       0.737080
     2236.700000       0.747040
     2236.800000       0.756760
     2236.900000       0.766240
     2237.000000       0.775480
     2237.100000       0.784450
     2237.200000       0.793180
     2237.300000       0.801640
     2237.400000       0.809840
     2237.500000       0.817770
     2237.600000       0.825430
     2237.700000       0.832820
     2237.800000       0.839930
     2237.900000       0.846780
     2238.000000       0.853350
     2238.100000       0.859610
     2238.200000       0.865600
     2238.300000       0.871320
     2238.400000       0.876770
     2238.500000       0.881960
     2238.600000       0.886880
     2238.700000       0.891550
     2238.800000       0.895960
     2238.900000       0.900130
     2239.000000       0.904050
     2239.100000       0.907740
     2239.200000       0.911200
     2239.300000       0.914430
     2239.400000       0.917450
     2239.500000       0.920260
     2239.600000       0.922860
     2239.700000       0.925270
     2239.800000       0.927500
     2239.900000       0.929550
     2240.000000       0.931420
     2240.100000       0.933150
     2240.200000       0.934720
     2240.300000       0.936150
     2240.400000       0.937440
     2240.500000       0.938600
     2240.600000       0.939650
     2240.700000       0.940590
     2240.800000       0.941430
     2240.900000       0.942180
     2241.000000       0.942840
     2241.100000       0.943430
     2241.200000       0.943960
     2241.300000       0.944420
     2241.400000       0.944840
     2241.500000       0.945210
     2241.600000       0.945540
     2241.700000       0.945840
     2241.800000       0.946120
     2241.900000       0.946390
     2242.000000       0.946640
     2242.100000       0.946920
     2242.200000       0.947200
     2242.300000       0.947480
     2242.400000       0.947780
     2242.500000       0.948090
     2242.600000       0.948420
     2242.700000       0.948770
     2242.800000       0.949150
     2242.900000       0.949560
     2243.000000       0.950000
     2243.100000       0.950470
     2243.200000       0.950980
     2243.300000       0.951520
     2243.400000       0.952110
     2243.500000       0.952740
     2243.600000       0.953400
     2243.700000       0.954110
     2243.800000       0.954860
     2243.900000       0.955650
     2244.000000       0.956480
     2244.100000       0.957330
     2244.200000       0.958220
     2244.300000       0.959150
     2244.400000       0.960120
     2244.500000       0.961120
     2244.600000       0.962160
     2244.700000       0.963230
     2244.800000       0.964320
     2244.900000       0.965450
     2245.000000       0.966600
     2245.100000       0.967770
     2245.200000       0.968960
     2245.300000       0.970170
     2245.400000       0.971410
     2245.500000       0.972670
     2245.600000       0.973940
     2245.700000       0.975220
     2245.800000       0.976500
     2245.900000       0.977780
     2246.000000       0.979050
     2246.100000       0.980320
     2246.200000       0.981570
     2246.300000       0.982820
     2246.400000       0.984040
     2246.500000       0.985250
     2246.600000       0.986430
     2246.700000       0.987590
     2246.800000       0.988720
     2246.900000       0.989820
     2247.000000       0.990880
     2247.100000       0.991900
     2247.200000       0.992870
     2247.300000       0.993800
     2247.400000       0.994680
     2247.500000       0.995500
     2247.600000       0.996270
     2247.700000       0.996990
     2247.800000       0.997640
     2247.900000       0.998220
     2248.000000       0.998730
     2248.100000       0.999150
     2248.200000       0.999480
     2248.300000       0.999740
     2248.400000       0.999910
     2248.500000       1.000000
     2248.600000       1.000000
     2248.700000       0.999900
     2248.800000       0.999700
     2248.900000       0.999400
     2249.000000       0.999000
     2249.100000       0.998480
     2249.200000       0.997850
     2249.300000       0.997100
     2249.400000       0.996230
     2249.500000       0.995230
     2249.600000       0.994110
     2249.700000       0.992850
     2249.800000       0.991450
     2249.900000       0.989910
     2250.000000       0.988220
     2250.100000       0.986420
     2250.200000       0.984470
     2250.300000       0.982360
     2250.400000       0.980090
     2250.500000       0.977650
     2250.600000       0.975030
     2250.700000       0.972250
     2250.800000       0.969280
     2250.900000       0.966130
     2251.000000       0.962790
     2251.100000       0.959260
     2251.200000       0.955530
     2251.300000       0.951610
     2251.400000       0.947490
     2251.500000       0.943160
     2251.600000       0.938630
     2251.700000       0.933880
     2251.800000       0.928930
     2251.900000       0.923760
     2252.000000       0.918380
     2252.100000       0.912780
     2252.200000       0.906970
     2252.300000       0.900930
     2252.400000       0.894670
     2252.500000       0.888190
     2252.600000       0.881490
     2252.700000       0.874570
     2252.800000       0.867430
     2252.900000       0.860060
     2253.000000       0.852470
     2253.100000       0.844670
     2253.200000       0.836650
     2253.300000       0.828420
     2253.400000       0.819980
     2253.500000       0.811320
     2253.600000       0.802460
     2253.700000       0.793410
     2253.800000       0.784150
     2253.900000       0.774700
     2254.000000       0.765070
     2254.100000       0.755240
     2254.200000       0.745250
     2254.300000       0.735080
     2254.400000       0.724750
     2254.500000       0.714260
     2254.600000       0.703620
     2254.700000       0.692840
     2254.800000       0.681910
     2254.900000       0.670860
     2255.000000       0.659690
     2255.100000       0.648410
     2255.200000       0.637040
     2255.300000       0.625570
     2255.400000       0.614020
     2255.500000       0.602400
     2255.600000       0.590720
     2255.700000       0.578990
     2255.800000       0.567220
     2255.900000       0.555410
     2256.000000       0.543580
     2256.100000       0.531740
     2256.200000       0.519890
     2256.300000       0.508050
     2256.400000       0.496230
     2256.500000       0.484450
     2256.600000       0.472700
     2256.700000       0.461000
     2256.800000       0.449360
     2256.900000       0.437780
     2257.000000       0.426290
     2257.100000       0.414890
     2257.200000       0.403580
     2257.300000       0.392380
     2257.400000       0.381290
     2257.500000       0.370330
     2257.600000       0.359500
     2257.700000       0.348800
     2257.800000       0.338260
     2257.900000       0.327860
     2258.000000       0.317630
     2258.100000       0.307560
     2258.200000       0.297660
     2258.300000       0.287940
     2258.400000       0.278400
     2258.500000       0.269050
     2258.600000       0.259900
     2258.700000       0.250940
     2258.800000       0.242180
     2258.900000       0.233620
     2259.000000       0.225270
     2259.100000       0.217130
     2259.200000       0.209190
     2259.300000       0.201470
     2259.400000       0.193960
     2259.500000       0.186670
     2259.600000       0.179590
     2259.700000       0.172720
     2259.800000       0.166060
     2259.900000       0.159610
     2260.000000       0.153380
     2260.100000       0.147360
     2260.200000       0.141540
     2260.300000       0.135930
     2260.400000       0.130520
     2260.500000       0.125300
     2260.600000       0.120280
     2260.700000       0.115450
     2260.800000       0.110810
     2260.900000       0.106360
     2261.000000       0.102080
     2261.100000       0.097984
     2261.200000       0.094057
     2261.300000       0.090298
     2261.400000       0.086700
     2261.500000       0.083261
     2261.600000       0.079974
     2261.700000       0.076834
     2261.800000       0.073837
     2261.900000       0.070978
     2262.000000       0.068250
     2262.100000       0.065649
     2262.200000       0.063169
     2262.300000       0.060806
     2262.400000       0.058554
     2262.500000       0.056408
     2262.600000       0.054363
     2262.700000       0.052415
     2262.800000       0.050558
     2262.900000       0.048787
     2263.000000       0.047099
     2263.100000       0.045487
     2263.200000       0.043949
     2263.300000       0.042479
     2263.400000       0.041074
     2263.500000       0.039729
     2263.600000       0.038442
     2263.700000       0.037208
     2263.800000       0.036024
     2263.900000       0.034886
     2264.000000       0.033792
     2264.100000       0.032739
     2264.200000       0.031724
     2264.300000       0.030745
     2264.400000       0.029799
     2264.500000       0.028884
     2264.600000       0.027998
     2264.700000       0.027139
     2264.800000       0.026306
     2264.900000       0.025497
     2265.000000       0.024711
     2265.100000       0.023946
     2265.200000       0.023202
     2265.300000       0.022476
     2265.400000       0.021769
     2265.500000       0.021080
     2265.600000       0.020408
     2265.700000       0.019752
     2265.800000       0.019112
     2265.900000       0.018488
     2266.000000       0.017878
     2266.100000       0.017284
     2266.200000       0.016704
     2266.300000       0.016138
     2266.400000       0.015587
     2266.500000       0.015050
     2266.600000       0.014527
     2266.700000       0.014017
     2266.800000       0.013522
     2266.900000       0.013041
     2267.000000       0.012573
     2267.100000       0.012190
     2267.200000       0.011751
     2267.300000       0.011326
     2267.400000       0.010915
     2267.500000       0.010518
     2267.600000       0.010136
     2267.700000       0.009769
     2267.800000       0.009416
     2267.900000       0.009078
     2268.000000       0.008755
     2268.100000       0.008447
     2268.200000       0.008154
     2268.300000       0.007877
     2268.400000       0.007615
     2268.500000       0.007369
     2268.600000       0.007138
     2268.700000       0.006923
     2268.800000       0.006724
     2268.900000       0.006540
     2269.000000       0.006371
     2269.100000       0.006218
     2269.200000       0.006078
     2269.300000       0.005953
     2269.400000       0.005842
     2269.500000       0.005744
     2269.600000       0.005657
     2269.700000       0.005582
     2269.800000       0.005517
     2269.900000       0.005462
     2270.000000       0.005416
     2270.100000       0.005376
     2270.200000       0.005344
     2270.300000       0.005317
     2270.400000       0.005294
     2270.500000       0.005275
     2270.600000       0.005259
     2270.700000       0.005244
     2270.800000       0.005230
     2270.900000       0.005217
     2271.000000       0.005203
     2271.100000       0.005189
     2271.200000       0.005173
     2271.300000       0.005155
     2271.400000       0.005135
     2271.500000       0.005113
     2271.600000       0.005088
     2271.700000       0.005061
     2271.800000       0.005030
     2271.900000       0.004997
     2272.000000       0.004961
     2272.100000       0.004923
     2272.200000       0.004882
     2272.300000       0.004838
     2272.400000       0.004792
     2272.500000       0.004744
     2272.600000       0.004694
     2272.700000       0.004642
     2272.800000       0.004588
     2272.900000       0.004533
     2273.000000       0.004476
     2273.100000       0.004418
     2273.200000       0.004359
     2273.300000       0.004298
     2273.400000       0.004236
     2273.500000       0.004173
     2273.600000       0.004109
     2273.700000       0.004043
     2273.800000       0.003976
     2273.900000       0.003907
     2274.000000       0.003836
     2274.100000       0.003763
     2274.200000       0.003688
     2274.300000       0.003611
     2274.400000       0.003531
     2274.500000       0.003449
     2274.600000       0.003364
     2274.700000       0.003276
     2274.800000       0.003184
     2274.900000       0.003091
     2275.000000       0.002994
     2275.100000       0.002894
     2275.200000       0.002791
     2275.300000       0.002686
     2275.400000       0.002578
     2275.500000       0.002468
     2275.600000       0.002356
     2275.700000       0.002244
     2275.800000       0.002131
     2275.900000       0.002018
     2276.000000       0.001906
     2276.100000       0.001797
     2276.200000       0.001692
     2276.300000       0.001591
     2276.400000       0.001498
     2276.500000       0.001412
     2276.600000       0.001337
     2276.700000       0.001272
     2276.800000       0.001221
     2276.900000       0.001182
     2277.000000       0.001157
     2277.100000       0.001146
     2277.200000       0.000000
