1,    channel 1 SRF extracted from SRF_FY4B_AGRI.zip (FY4B_AGRI_SRF_CH1_Pub.txt)
Number of data points:
1147
Wavenumber (cm-1)   Filter response
    18964.536300       0.003300
    18968.133500       0.003300
    18971.732100       0.003400
    18975.332100       0.003400
    18978.933400       0.003400
    18982.536100       0.003400
    18986.140100       0.003400
    18989.745500       0.003400
    18993.352300       0.003500
    18996.960500       0.003500
    19000.570000       0.003500
    19004.180900       0.003500
    19007.793200       0.003500
    19011.406800       0.003500
    19015.021900       0.003500
    19018.638300       0.003500
    19022.256000       0.003500
    19025.875200       0.003500
    19029.495700       0.003500
    19033.117600       0.003500
    19036.740900       0.003500
    19040.365600       0.003500
    19043.991600       0.003500
    19047.619000       0.003500
    19051.247900       0.003500
    19054.878000       0.003500
    19058.509600       0.003500
    19062.142600       0.003500
    19065.776900       0.003500
    19069.412700       0.003500
    19073.049800       0.003500
    19076.688300       0.003500
    19080.328200       0.003500
    19083.969500       0.003500
    19087.612100       0.003400
    19091.256200       0.003500
    19094.901700       0.003500
    19098.548500       0.003500
    19102.196800       0.003400
    19105.846400       0.003400
    19109.497400       0.003400
    19113.149800       0.003400
    19116.803700       0.003400
    19120.458900       0.003400
    19124.115500       0.003400
    19127.773500       0.003400
    19131.432900       0.003400
    19135.093800       0.003400
    19138.756000       0.003400
    19142.419600       0.003400
    19146.084600       0.003400
    19149.751100       0.003400
    19153.418900       0.003300
    19157.088100       0.003300
    19160.758800       0.003300
    19164.430800       0.003300
    19168.104300       0.003300
    19171.779100       0.003300
    19175.455400       0.003300
    19179.133100       0.003300
    19182.812200       0.003300
    19186.492700       0.003300
    19190.174600       0.003300
    19193.858000       0.003300
    19197.542700       0.003300
    19201.228900       0.003300
    19204.916500       0.003300
    19208.605500       0.003300
    19212.295900       0.003300
    19215.987700       0.003300
    19219.681000       0.003300
    19223.375600       0.003300
    19227.071700       0.003300
    19230.769200       0.003300
    19234.468200       0.003300
    19238.168500       0.003300
    19241.870300       0.003300
    19245.573500       0.003300
    19249.278200       0.003300
    19252.984200       0.003300
    19256.691700       0.003300
    19260.400600       0.003300
    19264.111000       0.003300
    19267.822700       0.003300
    19271.535900       0.003300
    19275.250600       0.003300
    19278.966600       0.003300
    19282.684100       0.003300
    19286.403100       0.003300
    19290.123500       0.003400
    19293.845300       0.003400
    19297.568500       0.003400
    19301.293200       0.003400
    19305.019300       0.003400
    19308.746900       0.003400
    19312.475900       0.003400
    19316.206300       0.003400
    19319.938200       0.003500
    19323.671500       0.003500
    19327.406300       0.003500
    19331.142500       0.003500
    19334.880100       0.003500
    19338.619200       0.003500
    19342.359800       0.003500
    19346.101800       0.003600
    19349.845200       0.003600
    19353.590100       0.003600
    19357.336400       0.003700
    19361.084200       0.003700
    19364.833500       0.003700
    19368.584200       0.003700
    19372.336300       0.003800
    19376.089900       0.003800
    19379.845000       0.003800
    19383.601500       0.003800
    19387.359400       0.003900
    19391.118900       0.003900
    19394.879800       0.003900
    19398.642100       0.004000
    19402.405900       0.004000
    19406.171200       0.004100
    19409.937900       0.004100
    19413.706100       0.004100
    19417.475700       0.004200
    19421.246800       0.004200
    19425.019400       0.004200
    19428.793500       0.004300
    19432.569000       0.004300
    19436.346000       0.004400
    19440.124400       0.004400
    19443.904300       0.004500
    19447.685700       0.004500
    19451.468600       0.004600
    19455.252900       0.004600
    19459.038700       0.004700
    19462.826000       0.004700
    19466.614800       0.004800
    19470.405000       0.004900
    19474.196700       0.004900
    19477.989900       0.005000
    19481.784500       0.005000
    19485.580700       0.005100
    19489.378300       0.005100
    19493.177400       0.005200
    19496.978000       0.005300
    19500.780000       0.005300
    19504.583600       0.005400
    19508.388600       0.005400
    19512.195100       0.005500
    19516.003100       0.005600
    19519.812600       0.005600
    19523.623600       0.005700
    19527.436000       0.005800
    19531.250000       0.005900
    19535.065400       0.005900
    19538.882400       0.006000
    19542.700800       0.006100
    19546.520700       0.006200
    19550.342100       0.006300
    19554.165000       0.006400
    19557.989400       0.006500
    19561.815300       0.006600
    19565.642700       0.006700
    19569.471600       0.006800
    19573.302000       0.006900
    19577.133900       0.007000
    19580.967300       0.007200
    19584.802200       0.007300
    19588.638600       0.007400
    19592.476500       0.007500
    19596.315900       0.007700
    19600.156800       0.007800
    19603.999200       0.007900
    19607.843100       0.008100
    19611.688600       0.008200
    19615.535500       0.008400
    19619.384000       0.008600
    19623.233900       0.008700
    19627.085400       0.008900
    19630.938400       0.009000
    19634.792900       0.009200
    19638.648900       0.009400
    19642.506400       0.009500
    19646.365400       0.009700
    19650.226000       0.009900
    19654.088100       0.010100
    19657.951600       0.010200
    19661.816800       0.010400
    19665.683400       0.010600
    19669.551500       0.010800
    19673.421200       0.011000
    19677.292400       0.011200
    19681.165100       0.011500
    19685.039400       0.011700
    19688.915100       0.011900
    19692.792400       0.012200
    19696.671300       0.012400
    19700.551600       0.012700
    19704.433500       0.012900
    19708.316900       0.013200
    19712.201900       0.013400
    19716.088300       0.013700
    19719.976300       0.014000
    19723.865900       0.014200
    19727.757000       0.014500
    19731.649600       0.014800
    19735.543700       0.015000
    19739.439400       0.015300
    19743.336600       0.015600
    19747.235400       0.015900
    19751.135700       0.016200
    19755.037500       0.016600
    19758.940900       0.016900
    19762.845800       0.017200
    19766.752300       0.017500
    19770.660300       0.017800
    19774.569900       0.018100
    19778.481000       0.018400
    19782.393700       0.018800
    19786.307900       0.019100
    19790.223600       0.019400
    19794.140900       0.019800
    19798.059800       0.020200
    19801.980200       0.020600
    19805.902200       0.021000
    19809.825700       0.021400
    19813.750700       0.021900
    19817.677400       0.022300
    19821.605600       0.022700
    19825.535300       0.023200
    19829.466600       0.023600
    19833.399400       0.024000
    19837.333900       0.024400
    19841.269800       0.024900
    19845.207400       0.025300
    19849.146500       0.025800
    19853.087200       0.026300
    19857.029400       0.026800
    19860.973200       0.027300
    19864.918600       0.027800
    19868.865500       0.028200
    19872.814000       0.028700
    19876.764100       0.029200
    19880.715700       0.029700
    19884.668900       0.030200
    19888.623700       0.030800
    19892.580100       0.031300
    19896.538000       0.031800
    19900.497500       0.032400
    19904.458600       0.032900
    19908.421300       0.033500
    19912.385500       0.034000
    19916.351300       0.034600
    19920.318700       0.035200
    19924.287700       0.035800
    19928.258300       0.036400
    19932.230400       0.037100
    19936.204100       0.037700
    19940.179500       0.038400
    19944.156400       0.039000
    19948.134800       0.039700
    19952.114900       0.040300
    19956.096600       0.041000
    19960.079800       0.041700
    19964.064700       0.042400
    19968.051100       0.043000
    19972.039100       0.043700
    19976.028800       0.044500
    19980.020000       0.045200
    19984.012800       0.045900
    19988.007200       0.046700
    19992.003200       0.047500
    19996.000800       0.048300
    20000.000000       0.049200
    20004.000800       0.050100
    20008.003200       0.051000
    20012.007200       0.051900
    20016.012800       0.052900
    20020.020000       0.053800
    20024.028800       0.054700
    20028.039300       0.055600
    20032.051300       0.056500
    20036.064900       0.057400
    20040.080200       0.058300
    20044.097000       0.059300
    20048.115500       0.060200
    20052.135600       0.061200
    20056.157200       0.062200
    20060.180500       0.063200
    20064.205500       0.064300
    20068.232000       0.065400
    20072.260100       0.066600
    20076.289900       0.067800
    20080.321300       0.069100
    20084.354300       0.070500
    20088.388900       0.071900
    20092.425200       0.073300
    20096.463000       0.074800
    20100.502500       0.076100
    20104.543600       0.077400
    20108.586400       0.078700
    20112.630700       0.080000
    20116.676700       0.081400
    20120.724300       0.082900
    20124.773600       0.084600
    20128.824500       0.086500
    20132.877000       0.088400
    20136.931100       0.090300
    20140.986900       0.092300
    20145.044300       0.094200
    20149.103400       0.096100
    20153.164000       0.098000
    20157.226400       0.099900
    20161.290300       0.102000
    20165.355900       0.104100
    20169.423200       0.106400
    20173.492000       0.108700
    20177.562600       0.111000
    20181.634700       0.113400
    20185.708500       0.115700
    20189.784000       0.118000
    20193.861100       0.120400
    20197.939800       0.122700
    20202.020200       0.125200
    20206.102200       0.127800
    20210.185900       0.130500
    20214.271300       0.133300
    20218.358300       0.136200
    20222.446900       0.139400
    20226.537200       0.142700
    20230.629200       0.146100
    20234.722800       0.149700
    20238.818100       0.153400
    20242.915000       0.157200
    20247.013600       0.161000
    20251.113800       0.164900
    20255.215700       0.168900
    20259.319300       0.172800
    20263.424500       0.176900
    20267.531400       0.181000
    20271.640000       0.185200
    20275.750200       0.189600
    20279.862100       0.194200
    20283.975700       0.199100
    20288.090900       0.204200
    20292.207800       0.209700
    20296.326400       0.215200
    20300.446600       0.220800
    20304.568500       0.226400
    20308.692100       0.232000
    20312.817400       0.237500
    20316.944300       0.243000
    20321.073000       0.248800
    20325.203300       0.254700
    20329.335200       0.261100
    20333.468900       0.267700
    20337.604200       0.274500
    20341.741300       0.281400
    20345.880000       0.288300
    20350.020400       0.295100
    20354.162400       0.302000
    20358.306200       0.308800
    20362.451600       0.315700
    20366.598800       0.322600
    20370.747600       0.329700
    20374.898100       0.336900
    20379.050300       0.344300
    20383.204200       0.352100
    20387.359800       0.360400
    20391.517100       0.369100
    20395.676100       0.378100
    20399.836800       0.387400
    20403.999200       0.396700
    20408.163300       0.405900
    20412.329000       0.414900
    20416.496500       0.423700
    20420.665700       0.432100
    20424.836600       0.440300
    20429.009200       0.448200
    20433.183500       0.455700
    20437.359500       0.463100
    20441.537200       0.470500
    20445.716600       0.478000
    20449.897800       0.485900
    20454.080600       0.494200
    20458.265100       0.502900
    20462.451400       0.511900
    20466.639400       0.521200
    20470.829100       0.530700
    20475.020500       0.540400
    20479.213600       0.550000
    20483.408400       0.559500
    20487.605000       0.568700
    20491.803300       0.577700
    20496.003300       0.586200
    20500.205000       0.594500
    20504.408400       0.603000
    20508.613600       0.611800
    20512.820500       0.621400
    20517.029100       0.631800
    20521.239500       0.642900
    20525.451600       0.654100
    20529.665400       0.665300
    20533.880900       0.676000
    20538.098200       0.686000
    20542.317200       0.695000
    20546.537900       0.703300
    20550.760400       0.710600
    20554.984600       0.717100
    20559.210500       0.722800
    20563.438200       0.727900
    20567.667600       0.732600
    20571.898800       0.737500
    20576.131700       0.742600
    20580.366300       0.748200
    20584.602700       0.754300
    20588.840800       0.760500
    20593.080700       0.766600
    20597.322300       0.772400
    20601.565700       0.777800
    20605.810800       0.782600
    20610.057700       0.787100
    20614.306300       0.791200
    20618.556700       0.795100
    20622.808800       0.798900
    20627.062700       0.802500
    20631.318300       0.805900
    20635.575700       0.809200
    20639.834900       0.812200
    20644.095800       0.814900
    20648.358500       0.817400
    20652.622900       0.819600
    20656.889100       0.821400
    20661.157000       0.822900
    20665.426700       0.824000
    20669.698200       0.824900
    20673.971500       0.825700
    20678.246500       0.826600
    20682.523300       0.827800
    20686.801800       0.829400
    20691.082100       0.831400
    20695.364200       0.833500
    20699.648100       0.835800
    20703.933700       0.838100
    20708.221200       0.840400
    20712.510400       0.842400
    20716.801300       0.844200
    20721.094100       0.845700
    20725.388600       0.846700
    20729.684900       0.847300
    20733.983000       0.847700
    20738.282900       0.848000
    20742.584500       0.848500
    20746.888000       0.849500
    20751.193200       0.851000
    20755.500200       0.852900
    20759.809000       0.854700
    20764.119600       0.856200
    20768.432000       0.856900
    20772.746200       0.856800
    20777.062100       0.856300
    20781.379900       0.856100
    20785.699400       0.856900
    20790.020800       0.859300
    20794.343900       0.863700
    20798.668900       0.869500
    20802.995600       0.875500
    20807.324200       0.880900
    20811.654500       0.884700
    20815.986700       0.886000
    20820.320600       0.885700
    20824.656400       0.884500
    20828.994000       0.883600
    20833.333300       0.883800
    20837.674500       0.885800
    20842.017500       0.889300
    20846.362300       0.893500
    20850.708900       0.898000
    20855.057400       0.902100
    20859.407600       0.905300
    20863.759600       0.907700
    20868.113500       0.909600
    20872.469200       0.911100
    20876.826700       0.912600
    20881.186100       0.914200
    20885.547200       0.916300
    20889.910200       0.919000
    20894.275000       0.922600
    20898.641600       0.927200
    20903.010000       0.933000
    20907.380300       0.939300
    20911.752400       0.945200
    20916.126300       0.949800
    20920.502100       0.952400
    20924.879700       0.952400
    20929.259100       0.950700
    20933.640400       0.948600
    20938.023500       0.947200
    20942.408400       0.947900
    20946.795100       0.951500
    20951.183700       0.957200
    20955.574200       0.964000
    20959.966500       0.970600
    20964.360600       0.976100
    20968.756600       0.979500
    20973.154400       0.981000
    20977.554000       0.980900
    20981.955500       0.979700
    20986.358900       0.977700
    20990.764100       0.975300
    20995.171100       0.973000
    20999.580000       0.971300
    21003.990800       0.970600
    21008.403400       0.971500
    21012.817800       0.974200
    21017.234100       0.978200
    21021.652300       0.982800
    21026.072300       0.987100
    21030.494200       0.990400
    21034.918000       0.992200
    21039.343600       0.992600
    21043.771000       0.992000
    21048.200400       0.990800
    21052.631600       0.989300
    21057.064600       0.987800
    21061.499600       0.986500
    21065.936400       0.985400
    21070.375100       0.984700
    21074.815600       0.984200
    21079.258000       0.984200
    21083.702300       0.984700
    21088.148500       0.985600
    21092.596500       0.987100
    21097.046400       0.989200
    21101.498200       0.991800
    21105.951900       0.994600
    21110.407400       0.997200
    21114.864900       0.999100
    21119.324200       1.000000
    21123.785400       0.999500
    21128.248500       0.998000
    21132.713400       0.995600
    21137.180300       0.992700
    21141.649000       0.989700
    21146.119700       0.986800
    21150.592200       0.984600
    21155.066600       0.983200
    21159.543000       0.983000
    21164.021200       0.984400
    21168.501300       0.987600
    21172.983300       0.991500
    21177.467200       0.995200
    21181.953000       0.997600
    21186.440700       0.997600
    21190.930300       0.994400
    21195.421800       0.989100
    21199.915200       0.982800
    21204.410500       0.976800
    21208.907700       0.972500
    21213.406900       0.970900
    21217.907900       0.971200
    21222.410900       0.972800
    21226.915700       0.974800
    21231.422500       0.976200
    21235.931200       0.976500
    21240.441800       0.975800
    21244.954300       0.974600
    21249.468800       0.973300
    21253.985100       0.972500
    21258.503400       0.972300
    21263.023600       0.972800
    21267.545700       0.973400
    21272.069800       0.974000
    21276.595700       0.974300
    21281.123600       0.973900
    21285.653500       0.972800
    21290.185200       0.971000
    21294.718900       0.968400
    21299.254500       0.964900
    21303.792100       0.960700
    21308.331600       0.955900
    21312.873000       0.951200
    21317.416300       0.947000
    21321.961600       0.943500
    21326.508900       0.941300
    21331.058000       0.940200
    21335.609100       0.940000
    21340.162200       0.940500
    21344.717200       0.941500
    21349.274100       0.942700
    21353.833000       0.943800
    21358.393800       0.944300
    21362.956600       0.943600
    21367.521400       0.941400
    21372.088100       0.937400
    21376.656700       0.932400
    21381.227300       0.927400
    21385.799800       0.923600
    21390.374300       0.922000
    21394.950800       0.923100
    21399.529200       0.926200
    21404.109600       0.930000
    21408.691900       0.933200
    21413.276200       0.934500
    21417.862500       0.933000
    21422.450700       0.929400
    21427.040900       0.924700
    21431.633100       0.919900
    21436.227200       0.916200
    21440.823300       0.914200
    21445.421400       0.913900
    21450.021500       0.914900
    21454.623500       0.917000
    21459.227500       0.919700
    21463.833400       0.922800
    21468.441400       0.926100
    21473.051300       0.929200
    21477.663200       0.932100
    21482.277100       0.934500
    21486.893000       0.936200
    21491.510900       0.937300
    21496.130700       0.937900
    21500.752500       0.938000
    21505.376300       0.937800
    21510.002200       0.937200
    21514.629900       0.936400
    21519.259700       0.935100
    21523.891500       0.933300
    21528.525300       0.931100
    21533.161100       0.928200
    21537.798800       0.925100
    21542.438600       0.921800
    21547.080400       0.918600
    21551.724100       0.915700
    21556.369900       0.913300
    21561.017700       0.911400
    21565.667500       0.909800
    21570.319200       0.908400
    21574.973000       0.907100
    21579.628800       0.905800
    21584.286600       0.904600
    21588.946500       0.903400
    21593.608300       0.902200
    21598.272100       0.901200
    21602.938000       0.900400
    21607.605900       0.899700
    21612.275800       0.899200
    21616.947700       0.898800
    21621.621600       0.898700
    21626.297600       0.898800
    21630.975600       0.899000
    21635.655600       0.899400
    21640.337600       0.900000
    21645.021600       0.900600
    21649.707700       0.901200
    21654.395800       0.901800
    21659.086000       0.902000
    21663.778200       0.901800
    21668.472400       0.900900
    21673.168600       0.899300
    21677.866900       0.897200
    21682.567200       0.894800
    21687.269600       0.892600
    21691.974000       0.890900
    21696.680400       0.889900
    21701.388900       0.889300
    21706.099400       0.888800
    21710.812000       0.888200
    21715.526600       0.887000
    21720.243300       0.885200
    21724.962000       0.882900
    21729.682700       0.880300
    21734.405600       0.877700
    21739.130400       0.875400
    21743.857400       0.873600
    21748.586300       0.872000
    21753.317400       0.870500
    21758.050500       0.868700
    21762.785600       0.866300
    21767.522900       0.863300
    21772.262100       0.859900
    21777.003500       0.856500
    21781.746900       0.853600
    21786.492400       0.851600
    21791.239900       0.850800
    21795.989500       0.850800
    21800.741200       0.851200
    21805.495000       0.851500
    21810.250800       0.851200
    21815.008700       0.850000
    21819.768700       0.847800
    21824.530800       0.845000
    21829.294900       0.841700
    21834.061100       0.838100
    21838.829400       0.834300
    21843.599800       0.830700
    21848.372300       0.827200
    21853.146900       0.824200
    21857.923500       0.821600
    21862.702200       0.819700
    21867.483100       0.818200
    21872.266000       0.816800
    21877.051000       0.815300
    21881.838100       0.813300
    21886.627300       0.810700
    21891.418600       0.807800
    21896.212000       0.805000
    21901.007400       0.802800
    21905.805000       0.801400
    21910.604700       0.801300
    21915.406500       0.802000
    21920.210400       0.803100
    21925.016400       0.803800
    21929.824600       0.803900
    21934.634800       0.802800
    21939.447100       0.800700
    21944.261600       0.798000
    21949.078100       0.795000
    21953.896800       0.791900
    21958.717600       0.789100
    21963.540500       0.786400
    21968.365600       0.783800
    21973.192700       0.781200
    21978.022000       0.778500
    21982.853400       0.775500
    21987.686900       0.772300
    21992.522500       0.768600
    21997.360300       0.764600
    22002.200200       0.760100
    22007.042300       0.755100
    22011.886400       0.749800
    22016.732700       0.744300
    22021.581100       0.738800
    22026.431700       0.733400
    22031.284400       0.728300
    22036.139300       0.723400
    22040.996300       0.718800
    22045.855400       0.714400
    22050.716600       0.710200
    22055.580100       0.706000
    22060.445600       0.702000
    22065.313300       0.698200
    22070.183200       0.694600
    22075.055200       0.691300
    22079.929300       0.688300
    22084.805700       0.685200
    22089.684100       0.681400
    22094.564700       0.676600
    22099.447500       0.670200
    22104.332400       0.661900
    22109.219500       0.652300
    22114.108800       0.641800
    22119.000200       0.631300
    22123.893800       0.621300
    22128.789600       0.612300
    22133.687500       0.604100
    22138.587600       0.596200
    22143.489800       0.588200
    22148.394200       0.579700
    22153.300800       0.570400
    22158.209600       0.560400
    22163.120600       0.550200
    22168.033700       0.540000
    22172.949000       0.530100
    22177.866500       0.520800
    22182.786200       0.511800
    22187.708000       0.502500
    22192.632000       0.492700
    22197.558300       0.481900
    22202.486700       0.469800
    22207.417300       0.456700
    22212.350100       0.443200
    22217.285000       0.429800
    22222.222200       0.417000
    22227.161600       0.405200
    22232.103200       0.394100
    22237.046900       0.383600
    22241.992900       0.373300
    22246.941000       0.363000
    22251.891400       0.352400
    22256.844000       0.341500
    22261.798800       0.330600
    22266.755700       0.319700
    22271.714900       0.309000
    22276.676300       0.298600
    22281.639900       0.288400
    22286.605700       0.278500
    22291.573800       0.268700
    22296.544000       0.259100
    22301.516500       0.249500
    22306.491200       0.240000
    22311.468100       0.230800
    22316.447200       0.221800
    22321.428600       0.213000
    22326.412100       0.204700
    22331.397900       0.196700
    22336.386000       0.189100
    22341.376200       0.182000
    22346.368700       0.175400
    22351.363400       0.169300
    22356.360400       0.163500
    22361.359600       0.158100
    22366.361000       0.152800
    22371.364700       0.147500
    22376.370600       0.142100
    22381.378700       0.136600
    22386.389100       0.131200
    22391.401700       0.125900
    22396.416600       0.120900
    22401.433700       0.116000
    22406.453100       0.111500
    22411.474700       0.107200
    22416.498500       0.103100
    22421.524700       0.099200
    22426.553000       0.095500
    22431.583700       0.092000
    22436.616600       0.088600
    22441.651700       0.085500
    22446.689100       0.082500
    22451.728800       0.079600
    22456.770700       0.076900
    22461.814900       0.074400
    22466.861400       0.071900
    22471.910100       0.069500
    22476.961100       0.067200
    22482.014400       0.065000
    22487.069900       0.062800
    22492.127800       0.060700
    22497.187900       0.058600
    22502.250200       0.056600
    22507.314900       0.054700
    22512.381800       0.052900
    22517.451000       0.051100
    22522.522500       0.049400
    22527.596300       0.047700
    22532.672400       0.046200
    22537.750700       0.044700
    22542.831400       0.043300
    22547.914300       0.042100
    22552.999500       0.041000
    22558.087100       0.040100
    22563.176900       0.039200
    22568.269000       0.038300
    22573.363400       0.037300
    22578.460100       0.036300
    22583.559200       0.035200
    22588.660500       0.034100
    22593.764100       0.032900
    22598.870100       0.031800
    22603.978300       0.030700
    22609.088900       0.029700
    22614.201700       0.028700
    22619.316900       0.027800
    22624.434400       0.026900
    22629.554200       0.026000
    22634.676300       0.025200
    22639.800800       0.024400
    22644.927500       0.023700
    22650.056600       0.023000
    22655.188000       0.022300
    22660.321800       0.021700
    22665.457800       0.021000
    22670.596200       0.020400
    22675.737000       0.019800
    22680.880000       0.019100
    22686.025400       0.018500
    22691.173100       0.017900
    22696.323200       0.017300
    22701.475600       0.016800
    22706.630300       0.016300
    22711.787400       0.015800
    22716.946800       0.015300
    22722.108600       0.014900
    22727.272700       0.014500
    22732.439200       0.014100
    22737.608000       0.013800
    22742.779200       0.013500
    22747.952700       0.013200
    22753.128600       0.012900
    22758.306800       0.012600
    22763.487400       0.012400
    22768.670300       0.012100
    22773.855600       0.011800
    22779.043300       0.011500
    22784.233300       0.011200
    22789.425700       0.010900
    22794.620500       0.010600
    22799.817600       0.010200
    22805.017100       0.009900
    22810.219000       0.009600
    22815.423200       0.009300
    22820.629800       0.009000
    22825.838800       0.008700
    22831.050200       0.008400
    22836.264000       0.008100
    22841.480100       0.007800
    22846.698700       0.007500
    22851.919600       0.007300
    22857.142900       0.007100
    22862.368500       0.006900
    22867.596600       0.006800
    22872.827100       0.006700
    22878.059900       0.006500
    22883.295200       0.006400
    22888.532800       0.006200
    22893.772900       0.006100
    22899.015300       0.005900
    22904.260200       0.005700
    22909.507400       0.005600
    22914.757100       0.005400
    22920.009200       0.005200
    22925.263600       0.005100
    22930.520500       0.004900
    22935.779800       0.004800
    22941.041500       0.004700
    22946.305600       0.004600
    22951.572200       0.004600
    22956.841100       0.004500
    22962.112500       0.004400
    22967.386300       0.004300
    22972.662500       0.004100
    22977.941200       0.004000
    22983.222200       0.003900
    22988.505700       0.003800
    22993.791700       0.003600
    22999.080000       0.003500
    23004.370800       0.003400
    23009.664100       0.003400
    23014.959700       0.003300
    23020.257800       0.003200
    23025.558400       0.003200
    23030.861400       0.003200
    23036.166800       0.003100
    23041.474700       0.003100
    23046.785000       0.003100
    23052.097700       0.003000
    23057.413000       0.002900
    23062.730600       0.002900
    23068.050700       0.002800
    23073.373300       0.002800
    23078.698400       0.002700
    23084.025900       0.002700
    23089.355800       0.002700
    23094.688200       0.002600
    23100.023100       0.002600
    23105.360400       0.002500
    23110.700300       0.002400
    23116.042500       0.002400
    23121.387300       0.002300
    23126.734500       0.002300
    23132.084200       0.002200
    23137.436400       0.002200
    23142.791000       0.002200
    23148.148100       0.002100
    23153.507800       0.002100
    23158.869800       0.002100
    23164.234400       0.002000
    23169.601500       0.002000
    23174.971000       0.002000
    23180.343100       0.001900
    23185.717600       0.001900
    23191.094600       0.001800
    23196.474100       0.001700
    23201.856100       0.001700
    23207.240700       0.001600
    23212.627700       0.001600
    23218.017200       0.001600
    23223.409200       0.001500
    23228.803700       0.001500
    23234.200700       0.001500
    23239.600300       0.001500
    23245.002300       0.001500
    23250.406900       0.001500
    23255.814000       0.001400
    23261.223500       0.001400
    23266.635600       0.001400
    23272.050300       0.001400
    23277.467400       0.001400
    23282.887100       0.001400
    23288.309300       0.001400
    23293.734000       0.001400
    23299.161200       0.001400
    23304.591000       0.001500
    23310.023300       0.001500
    23315.458100       0.001400
    23320.895500       0.001400
    23326.335400       0.001400
    23331.777900       0.001400
    23337.222900       0.001400
    23342.670400       0.001300
    23348.120500       0.001300
    23353.573100       0.001300
    23359.028300       0.001300
    23364.486000       0.001300
    23369.946200       0.001300
    23375.409100       0.001200
    23380.874400       0.001200
    23386.342400       0.001200
    23391.812900       0.001200
    23397.285900       0.001200
    23402.761500       0.001200
    23408.239700       0.001200
    23413.720400       0.001200
    23419.203700       0.001100
    23424.689600       0.001100
    23430.178100       0.001100
    23435.669100       0.001100
    23441.162700       0.001100
    23446.658900       0.001000
    23452.157600       0.001000
    23457.658900       0.001000
    23463.162800       0.000900
    23468.669300       0.000900
    23474.178400       0.000900
    23479.690100       0.000900
    23485.204300       0.000900
    23490.721200       0.000900
    23496.240600       0.000900
    23501.762600       0.000900
    23507.287300       0.000900
    23512.814500       0.000900
    23518.344300       0.000800
    23523.876700       0.000800
    23529.411800       0.000800
    23534.949400       0.000800
    23540.489600       0.000900
    23546.032500       0.000900
    23551.578000       0.000900
    23557.126000       0.000900
    23562.676700       0.000900
    23568.230000       0.000900
    23573.786000       0.000800
    23579.344500       0.000800
    23584.905700       0.000700
    23590.469500       0.000700
    23596.035900       0.000700
    23601.604900       0.000700
    23607.176600       0.000700
    23612.750900       0.000700
    23618.327800       0.000700
    23623.907400       0.000700
    23629.489600       0.000700
    23635.074500       0.000700
    23640.661900       0.000700
    23646.252100       0.000700
    23651.844800       0.000600
    23657.440300       0.000600
    23663.038300       0.000600
    23668.639100       0.000600
    23674.242400       0.000600
    23679.848400       0.000700
    23685.457100       0.000700
    23691.068500       0.000700
    23696.682500       0.000700
    23702.299100       0.000800
    23707.918400       0.000800
    23713.540400       0.000800
    23719.165100       0.000800
    23724.792400       0.000800
    23730.422400       0.000700
    23736.055100       0.000700
    23741.690400       0.000700
    23747.328400       0.000700
    23752.969100       0.000600
    23758.612500       0.000600
    23764.258600       0.000500
    23769.907300       0.000500
    23775.558700       0.000400
    23781.212800       0.000400
    23786.869600       0.000400
    23792.529100       0.000500
    23798.191300       0.000500
    23803.856200       0.000600
    23809.523800       0.000600
    23815.194100       0.000700
    23820.867100       0.000700
    23826.542800       0.000700
    23832.221200       0.000700
    23837.902300       0.000700
    23843.586100       0.000600
    23849.272600       0.000600
    23854.961800       0.000600
    23860.653800       0.000500
    23866.348400       0.000500
    23872.045800       0.000500
    23877.745900       0.000500
    23883.448800       0.000500
    23889.154300       0.000500
    23894.862600       0.000500
    23900.573600       0.000500
    23906.287400       0.000500
    23912.003800       0.000500
    23917.723000       0.000600
    23923.445000       0.000600
    23929.169700       0.000500
    23934.897100       0.000500
    23940.627200       0.000500
    23946.360200       0.000400
    23952.095800       0.000400
    23957.834200       0.000400
    23963.575400       0.000400
    23969.319300       0.000400
    23975.065900       0.000400
    23980.815300       0.000400
    23986.567500       0.000400
    23992.322500       0.000400
    23998.080200       0.000400
    24003.840600       0.000400
    24009.603800       0.000400
    24015.369800       0.000400
    24021.138600       0.000400
    24026.910100       0.000400
    24032.684500       0.000400
    24038.461500       0.000400
    24044.241400       0.000400
    24050.024100       0.000400
    24055.809500       0.000400
    24061.597700       0.000400
    24067.388700       0.000400
    24073.182500       0.000400
    24078.979100       0.000300
    24084.778400       0.000300
    24090.580600       0.000300
    24096.385500       0.000300
    24102.193300       0.000200
    24108.003900       0.000200
    24113.817200       0.000200
    24119.633400       0.000200
    24125.452400       0.000200
    24131.274100       0.000200
    24137.098700       0.000200
    24142.926100       0.000200
    24148.756300       0.000200
    24154.589400       0.000200
    24160.425200       0.000200
    24166.263900       0.000200
    24172.105400       0.000200
    24177.949700       0.000200
    24183.796900       0.000300
    24189.646800       0.000300
    24195.499600       0.000300
    24201.355300       0.000300
    24207.213700       0.000300
    24213.075100       0.000300
    24218.939200       0.000200
    24224.806200       0.000200
    24230.676000       0.000200
