8,    channel 8 SRF extracted from FY-3G_MERSI-RM.zip(FY3G_MERSI-RM_SRF_CH08.txt) (received Nov 2023)
Number of data points:
902
Wavenumber (cm-1)   Filter response
      714.540300       0.000000
      714.796400       0.000000
      715.051200       0.000000
      715.308000       0.000000
      715.563300       0.000000
      715.820400       0.000000
      716.076200       0.000000
      716.332100       0.000000
      716.589900       0.000000
      716.846200       0.000000
      717.103000       0.000000
      717.359700       0.000000
      717.616900       0.000000
      717.875600       0.000000
      718.133200       0.000000
      718.390900       0.000000
      718.648900       0.000000
      718.907000       0.000000
      719.165500       0.000000
      719.424100       0.000000
      719.682900       0.000000
      719.942100       0.000000
      720.201200       0.000000
      720.460800       0.000000
      720.720500       0.000000
      720.980500       0.000000
      721.240700       0.000000
      721.501100       0.000000
      721.761700       0.000000
      722.020900       0.000000
      722.282100       0.000000
      722.543400       0.000000
      722.804900       0.000000
      723.065100       0.000000
      723.327200       0.000000
      723.589300       0.000000
      723.850200       0.000000
      724.112800       0.000000
      724.375600       0.000000
      724.637300       0.000000
      724.900600       0.000000
      725.162600       0.000000
      725.426400       0.000000
      725.688900       0.000000
      725.953100       0.000000
      726.215900       0.000000
      726.480600       0.000000
      726.744000       0.000000
      727.007600       0.000000
      727.273000       0.000000
      727.537000       0.000000
      727.801300       0.000000
      728.067400       0.000000
      728.332100       0.000000
      728.597000       0.000000
      728.862200       0.000000
      729.129200       0.000000
      729.394800       0.000000
      729.660700       0.000000
      729.926800       0.000000
      730.193100       0.000000
      730.459600       0.000000
      730.726400       0.000000
      730.993400       0.000000
      731.262400       0.000000
      731.528200       0.000000
      731.796000       0.000000
      732.063800       0.000000
      732.332000       0.000000
      732.600400       0.000000
      732.869000       0.000000
      733.137900       0.000000
      733.407000       0.000000
      733.676300       0.000000
      733.944300       0.000000
      734.214100       0.000000
      734.484200       0.000000
      734.754500       0.000000
      735.023300       0.000000
      735.294100       0.000000
      735.565100       0.000000
      735.834600       0.000000
      736.106100       0.000000
      736.377800       0.000000
      736.648100       0.000000
      736.920300       0.000000
      737.191000       0.000000
      737.463700       0.000000
      737.734900       0.000000
      738.008000       0.000000
      738.279800       0.000000
      738.551700       0.000000
      738.825400       0.000000
      739.097800       0.000000
      739.372300       0.000000
      739.645100       0.000000
      739.918200       0.000000
      740.193400       0.000000
      740.466800       0.000000
      740.740700       0.000000
      741.014800       0.000000
      741.289100       0.000000
      741.565300       0.000000
      741.840100       0.000000
      742.115200       0.000000
      742.390600       0.000000
      742.666100       0.000000
      742.941700       0.000000
      743.217800       0.000000
      743.494000       0.000000
      743.770500       0.000000
      744.047200       0.000000
      744.324300       0.000000
      744.601500       0.000000
      744.879000       0.000000
      745.156500       0.000000
      745.434500       0.000000
      745.712700       0.000000
      745.989500       0.000000
      746.268200       0.000000
      746.547100       0.000000
      746.826300       0.000000
      747.105700       0.000000
      747.383600       0.000000
      747.663600       0.000000
      747.943700       0.000000
      748.222300       0.000000
      748.503100       0.000000
      748.783900       0.000000
      749.063400       0.000000
      749.344700       0.000000
      749.624700       0.000000
      749.906500       0.000000
      750.186800       0.000000
      750.469300       0.000000
      750.750200       0.000000
      751.033100       0.000000
      751.314400       0.000000
      751.597800       0.000000
      751.879800       0.000000
      752.161900       0.000000
      752.445900       0.000000
      752.728600       0.000000
      753.011700       0.000000
      753.296600       0.000000
      753.579800       0.000000
      753.863500       0.000000
      754.147400       0.000000
      754.431600       0.000000
      754.717600       0.000000
      755.002200       0.000000
      755.287200       0.000000
      755.572400       0.000000
      755.857700       0.000000
      756.143300       0.000000
      756.429300       0.000000
      756.715500       0.000000
      757.001800       0.000000
      757.288500       0.000000
      757.575500       0.000000
      757.862700       0.000000
      758.150000       0.000000
      758.437800       0.000000
      758.725700       0.000000
      759.013900       0.000000
      759.300500       0.000000
      759.589200       0.000000
      759.878300       0.000000
      760.167400       0.000000
      760.457000       0.000000
      760.744900       0.000000
      761.035000       0.000000
      761.325100       0.000000
      761.613900       0.000000
      761.904700       0.000000
      762.195600       0.000000
      762.485100       0.000000
      762.776700       0.000000
      763.066600       0.000000
      763.358700       0.000877
      763.651000       0.001110
      763.941900       0.001243
      764.234700       0.001348
      764.526000       0.001483
      764.817600       0.001817
      765.111200       0.002191
      765.403300       0.002462
      765.697400       0.002635
      765.990100       0.002844
      766.282900       0.003184
      766.577900       0.003591
      766.871200       0.003868
      767.164900       0.004020
      767.460600       0.004130
      767.754700       0.004310
      768.049200       0.004550
      768.343800       0.004746
      768.638800       0.004810
      768.935900       0.004781
      769.231300       0.004850
      769.527100       0.004988
      769.823200       0.005195
      770.119400       0.005286
      770.416000       0.005287
      770.712800       0.005307
      771.009800       0.005460
      771.307200       0.005559
      771.604900       0.005598
      771.902700       0.005479
      772.200800       0.005475
      772.499200       0.005567
      772.798100       0.005774
      773.096900       0.005988
      773.394300       0.006185
      773.693800       0.006369
      773.993600       0.006711
      774.293500       0.007038
      774.593900       0.007338
      774.892600       0.007473
      775.193300       0.007443
      775.494600       0.007457
      775.795800       0.007529
      776.095600       0.007533
      776.397500       0.007421
      776.699800       0.007254
      777.000300       0.007198
      777.303100       0.007262
      777.604200       0.007349
      777.907500       0.007449
      778.209100       0.007490
      778.512900       0.007612
      778.817000       0.007856
      779.119600       0.008205
      779.424200       0.008556
      779.727300       0.008879
      780.030500       0.009208
      780.336100       0.009670
      780.639900       0.010206
      780.944000       0.010651
      781.250400       0.010862
      781.555000       0.010984
      781.859900       0.011078
      782.167100       0.011272
      782.472600       0.011472
      782.778400       0.011633
      783.084500       0.011841
      783.392700       0.012318
      783.699400       0.013244
      784.006300       0.014647
      784.313400       0.016358
      784.620900       0.018524
      784.928600       0.021333
      785.236600       0.025086
      785.546800       0.029911
      785.855500       0.035814
      786.164200       0.042927
      786.473300       0.051505
      786.782700       0.061704
      787.092400       0.073615
      787.402400       0.086937
      787.712700       0.101427
      788.021200       0.116860
      788.332100       0.133042
      788.643100       0.149797
      788.954600       0.166945
      789.266300       0.183855
      789.578200       0.200793
      789.890400       0.217765
      790.201000       0.235001
      790.513800       0.252528
      790.826900       0.270203
      791.138300       0.287980
      791.451900       0.306510
      791.765900       0.325675
      792.080100       0.345511
      792.392700       0.365325
      792.707500       0.385017
      793.020600       0.404550
      793.335900       0.424035
      793.651700       0.443240
      793.965600       0.462053
      794.281800       0.480190
      794.596400       0.497926
      794.913200       0.515364
      795.228400       0.533065
      795.545900       0.550328
      795.861500       0.567265
      796.177400       0.583448
      796.495800       0.599453
      796.812300       0.615631
      797.131200       0.631457
      797.448400       0.646390
      797.765800       0.660648
      798.085500       0.674392
      798.403500       0.688480
      798.721900       0.701878
      799.040500       0.714650
      799.361400       0.726684
      799.680600       0.737849
      800.000100       0.749092
      800.319800       0.759597
      800.639900       0.768954
      800.960300       0.777352
      801.282900       0.784409
      801.604000       0.791538
      801.925200       0.799009
      802.246800       0.805829
      802.568600       0.812547
      802.890700       0.818829
      803.213100       0.825345
      803.535900       0.832384
      803.858900       0.839080
      804.182300       0.845395
      804.505900       0.851359
      804.829700       0.856604
      805.154100       0.862356
      805.476500       0.868038
      805.801300       0.873544
      806.126400       0.879016
      806.451900       0.884585
      806.777600       0.890421
      807.101600       0.896660
      807.427800       0.902255
      807.754500       0.907530
      808.081400       0.912255
      808.406600       0.916238
      808.734200       0.919653
      809.062100       0.922584
      809.388100       0.925077
      809.716500       0.927416
      810.045300       0.929729
      810.372200       0.932401
      810.701600       0.935554
      811.029200       0.938418
      811.359200       0.941372
      811.687300       0.943847
      812.017900       0.946488
      812.346700       0.949234
      812.677800       0.951578
      813.007300       0.953040
      813.339100       0.954352
      813.669200       0.955397
      814.001600       0.957113
      814.332200       0.958679
      814.663200       0.959688
      814.996400       0.959965
      815.328100       0.960482
      815.660000       0.961085
      815.994300       0.962179
      816.326700       0.963094
      816.659500       0.963726
      816.992600       0.964285
      817.328100       0.965541
      817.661900       0.967550
      817.995900       0.969597
      818.330300       0.970775
      818.665000       0.971550
      818.999800       0.971708
      819.337300       0.971977
      819.673000       0.971832
      820.008800       0.970782
      820.345100       0.969055
      820.681600       0.967048
      821.018500       0.965174
      821.355700       0.963400
      821.693100       0.961009
      822.031000       0.959055
      822.369000       0.957226
      822.707500       0.955685
      823.046300       0.954489
      823.383100       0.952695
      823.722600       0.951137
      824.062300       0.949764
      824.402300       0.948155
      824.742600       0.946789
      825.083300       0.945532
      825.422100       0.943628
      825.763400       0.941823
      826.105100       0.939920
      826.446900       0.938485
      826.787000       0.936802
      827.129700       0.934634
      827.472500       0.932294
      827.813600       0.930486
      828.157100       0.928752
      828.501000       0.926898
      828.843000       0.924524
      829.187500       0.921376
      829.532400       0.918371
      829.875300       0.915348
      830.220800       0.912431
      830.564500       0.909423
      830.910600       0.906380
      831.254900       0.903747
      831.601700       0.902289
      831.946600       0.900876
      832.291900       0.900116
      832.639700       0.899220
      832.985600       0.898762
      833.333900       0.898577
      833.680600       0.898647
      834.027500       0.898475
      834.376900       0.897955
      834.724300       0.896706
      835.072300       0.896239
      835.422600       0.896511
      835.771200       0.897310
      836.120100       0.897890
      836.469300       0.898710
      836.821000       0.900278
      837.170800       0.902512
      837.521100       0.904810
      837.871600       0.906670
      838.222400       0.907676
      838.573500       0.908452
      838.927300       0.909365
      839.279200       0.910440
      839.631300       0.911624
      839.983900       0.912238
      840.336800       0.912839
      840.689800       0.914077
      841.043400       0.916309
      841.397300       0.919158
      841.751500       0.921504
      842.106000       0.923481
      842.460800       0.925683
      842.816100       0.928282
      843.169300       0.931531
      843.525200       0.934562
      843.881400       0.936889
      844.238000       0.939497
      844.594900       0.942453
      844.952000       0.946266
      845.309700       0.949966
      845.665300       0.953092
      846.023500       0.955398
      846.382200       0.957620
      846.741200       0.959862
      847.098100       0.962313
      847.457700       0.964136
      847.817900       0.965692
      848.175700       0.967097
      848.536400       0.969367
      848.897500       0.972171
      849.256500       0.975360
      849.618200       0.978283
      849.977900       0.981326
      850.340300       0.984735
      850.700700       0.988175
      851.063800       0.991366
      851.427300       0.994140
      851.788800       0.996103
      852.150500       0.997793
      852.515100       0.999030
      852.877500       0.999790
      853.242700       1.000000
      853.606000       0.999226
      853.971700       0.997999
      854.335700       0.996662
      854.699900       0.994666
      855.066900       0.991716
      855.431900       0.987644
      855.797100       0.982921
      856.165200       0.977595
      856.531100       0.971162
      856.897500       0.963261
      857.264200       0.953936
      857.633600       0.943562
      858.001100       0.932372
      858.368900       0.920274
      858.736900       0.907102
      859.105500       0.892662
      859.476700       0.877348
      859.845900       0.861471
      860.215400       0.845169
      860.585300       0.828327
      860.955600       0.810549
      861.326200       0.792497
      861.697200       0.774599
      862.068500       0.756837
      862.440300       0.739086
      862.812300       0.720960
      863.184700       0.702501
      863.557600       0.684206
      863.930600       0.665689
      864.304200       0.646857
      864.678100       0.627135
      865.052200       0.606386
      865.426900       0.585163
      865.801900       0.563624
      866.174700       0.541553
      866.550400       0.518905
      866.926500       0.495412
      867.302900       0.471759
      867.679500       0.448311
      868.056800       0.425057
      868.431900       0.401873
      868.809800       0.378667
      869.188000       0.355764
      869.564200       0.333534
      869.943200       0.312216
      870.322500       0.291902
      870.699900       0.272031
      871.079900       0.252766
      871.460400       0.234444
      871.838800       0.217329
      872.220000       0.201258
      872.599200       0.185824
      872.981100       0.170995
      873.363400       0.156931
      873.743700       0.143704
      874.126700       0.131556
      874.507600       0.120082
      874.891500       0.109290
      875.273200       0.099368
      875.657800       0.090377
      876.040400       0.082423
      876.423200       0.075391
      876.808900       0.069034
      877.192500       0.063290
      877.579000       0.058276
      877.963300       0.053937
      878.348000       0.050081
      878.735700       0.046410
      879.121200       0.042888
      879.506900       0.039562
      879.893300       0.036486
      880.282400       0.033496
      880.669500       0.030539
      881.056900       0.027540
      881.444500       0.024692
      881.835300       0.022060
      882.223700       0.019525
      882.612700       0.016988
      883.002000       0.014608
      883.391700       0.012408
      883.781700       0.010567
      884.172200       0.008969
      884.565600       0.007536
      884.956700       0.006267
      885.348300       0.005221
      885.740400       0.004587
      886.132700       0.004284
      886.525400       0.004015
      886.918700       0.003771
      887.312100       0.003589
      887.706100       0.003602
      888.100400       0.003814
      888.495200       0.003998
      888.887700       0.004052
      889.283300       0.004019
      889.679100       0.004084
      890.075300       0.004269
      890.472000       0.004507
      890.869100       0.004724
      891.266500       0.004740
      891.661800       0.004767
      892.060100       0.004951
      892.458700       0.005173
      892.857800       0.005325
      893.257100       0.005368
      893.654300       0.005346
      894.054600       0.005439
      894.455300       0.005552
      894.853700       0.005769
      895.255100       0.005883
      895.656900       0.005959
      896.056500       0.006132
      896.459100       0.006424
      896.862200       0.006777
      897.263000       0.007107
      897.666900       0.007253
      898.068400       0.007443
      898.473100       0.007676
      898.875500       0.007817
      899.281000       0.007795
      899.684200       0.007551
      900.090400       0.007242
      900.494400       0.007020
      900.901500       0.006896
      901.306300       0.006804
      901.714300       0.006679
      902.119900       0.006517
      902.526000       0.006592
      902.935100       0.006858
      903.342000       0.007226
      903.749200       0.007459
      904.159500       0.007519
      904.567700       0.007632
      904.976200       0.007909
      905.387700       0.008120
      905.797100       0.008190
      906.206800       0.008066
      906.619600       0.007941
      907.030100       0.007920
      907.441200       0.008039
      907.852400       0.008163
      908.264300       0.008147
      908.676500       0.008098
      909.091900       0.008158
      909.505000       0.008326
      909.918400       0.008559
      910.332200       0.008613
      910.746600       0.008586
      911.161300       0.008624
      911.576400       0.008651
      911.992000       0.008667
      912.407900       0.008575
      912.824200       0.008347
      913.241000       0.008136
      913.658200       0.007936
      914.076000       0.007768
      914.494100       0.007595
      914.912500       0.007286
      915.331400       0.007064
      915.750800       0.007020
      916.170500       0.007069
      916.590800       0.007145
      917.011400       0.007167
      917.432400       0.007226
      917.851200       0.007432
      918.273100       0.007654
      918.695500       0.007865
      919.118200       0.008001
      919.541400       0.007995
      919.962200       0.007936
      920.386200       0.007963
      920.810600       0.008028
      921.235600       0.008001
      921.658300       0.007806
      922.083900       0.007567
      922.510200       0.007459
      922.934000       0.007437
      923.361000       0.007340
      923.788600       0.007139
      924.213800       0.006901
      924.642100       0.006684
      925.068300       0.006522
      925.497500       0.006403
      925.927200       0.006229
      926.354500       0.005980
      926.785000       0.005747
      927.213300       0.005699
      927.644800       0.005758
      928.073700       0.005726
      928.506200       0.005623
      928.936200       0.005639
      929.369400       0.005747
      929.800200       0.005959
      930.231500       0.006062
      930.666000       0.006029
      931.098300       0.005991
      931.533700       0.006040
      931.966800       0.006110
      932.400300       0.006197
      932.836900       0.006072
      933.271500       0.005926
      933.706300       0.005856
      934.141600       0.005899
      934.580200       0.005921
      935.016500       0.005812
      935.453000       0.005509
      935.890100       0.005314
      936.330400       0.005130
      936.768500       0.005027
      937.206900       0.004821
      937.645700       0.004464
      938.085100       0.004144
      938.527900       0.004068
      938.968100       0.004052
      939.408800       0.004101
      939.849900       0.004052
      940.291600       0.004063
      940.733600       0.004263
      941.176200       0.004550
      941.619200       0.004778
      942.062600       0.004897
      942.506500       0.004870
      942.950700       0.004859
      943.395700       0.004881
      943.840900       0.004805
      944.286700       0.004615
      944.733000       0.004274
      945.179600       0.004014
      945.626700       0.003895
      946.074300       0.003814
      946.522400       0.003624
      946.970800       0.003440
      947.417000       0.003326
      947.866400       0.003407
      948.316400       0.003581
      948.766700       0.003732
      949.217600       0.003749
      949.668900       0.003814
      950.117900       0.003933
      950.570100       0.004155
      951.022800       0.004296
      951.475900       0.004241
      951.926800       0.004106
      952.380800       0.004084
      952.835600       0.004144
      953.287700       0.004214
      953.743400       0.004155
      954.199500       0.004106
      954.653000       0.004128
      955.109900       0.004290
      955.567500       0.004523
      956.022500       0.004696
      956.480900       0.004702
      956.936900       0.004691
      957.396200       0.004761
      957.853300       0.004816
      958.313500       0.004653
      958.771400       0.004285
      959.232600       0.003846
      959.691500       0.003564
      960.153800       0.003391
      960.613600       0.003207
      961.076900       0.003012
      961.537600       0.002838
      962.002000       0.002876
      962.463600       0.003142
      962.925900       0.003429
      963.391700       0.003608
      963.854900       0.003635
      964.321400       0.003678
      964.785700       0.003889
      965.250200       0.004046
      965.718600       0.004052
      966.184000       0.003911
      966.650300       0.003684
      967.116800       0.003548
      967.587100       0.003413
      968.054700       0.003212
      968.522700       0.002866
      968.991400       0.002411
      969.463400       0.002010
      969.933100       0.001771
      970.403100       0.001549
      970.873800       0.001354
      971.344900       0.001170
      971.816400       0.001186
      972.288400       0.001398
      972.764100       0.001695
      973.237300       0.001961
      973.710800       0.002172
      974.184900       0.002324
      974.659400       0.002513
      975.134500       0.002714
      975.610000       0.002860
      976.086200       0.002876
      976.562700       0.002817
      977.040000       0.002806
      977.517600       0.002871
      977.995700       0.002882
      978.474400       0.002736
      978.953600       0.002513
      979.433100       0.002346
      979.913400       0.002270
      980.391000       0.002178
      980.872100       0.001988
      981.353800       0.001788
      981.836000       0.001647
      982.318700       0.001658
      982.802000       0.001766
      983.282800       0.001820
      983.767000       0.001820
      984.251800       0.001885
      984.737200       0.001983
      985.223000       0.002069
      985.706200       0.002026
      986.193100       0.001804
      986.680500       0.001533
      987.168600       0.001338
      987.653700       0.001213
      988.142700       0.001116
      988.632200       0.000964
      989.119000       0.000000
      989.609600       0.000000
      990.097500       0.000000
      990.589200       0.000000
      991.081400       0.000000
      991.570800       0.000000
      992.064100       0.000000
      992.554500       0.000000
      993.048900       0.000000
      993.543700       0.000000
      994.035800       0.000000
      994.531700       0.000000
      995.024800       0.000000
      995.521900       0.000000
      996.016000       0.000000
      996.510800       0.000000
      997.009400       0.000000
      997.505300       0.000000
      998.004900       0.000000
      998.501900       0.000000
      999.002600       0.000000
      999.500500       0.000000
      999.999100       0.000000
     1000.501400       0.000000
     1001.001100       0.000000
     1001.501400       0.000000
     1002.005300       0.000000
     1002.506600       0.000000
     1003.008400       0.000000
     1003.510600       0.000000
     1004.017000       0.000000
     1004.520300       0.000000
     1005.024200       0.000000
     1005.528800       0.000000
     1006.037200       0.000000
     1006.542800       0.000000
     1007.049000       0.000000
     1007.555800       0.000000
     1008.063100       0.000000
     1008.574400       0.000000
     1009.082700       0.000000
     1009.591700       0.000000
     1010.101200       0.000000
     1010.611300       0.000000
     1011.121900       0.000000
     1011.633100       0.000000
     1012.144900       0.000000
     1012.657100       0.000000
     1013.170000       0.000000
     1013.683400       0.000000
     1014.197600       0.000000
     1014.712000       0.000000
     1015.227200       0.000000
     1015.742900       0.000000
     1016.259200       0.000000
     1016.775900       0.000000
     1017.293300       0.000000
     1017.811300       0.000000
     1018.329700       0.000000
     1018.848900       0.000000
     1019.368700       0.000000
     1019.888800       0.000000
     1020.409800       0.000000
     1020.927800       0.000000
     1021.449700       0.000000
     1021.972200       0.000000
     1022.495400       0.000000
     1023.019200       0.000000
     1023.540000       0.000000
     1024.064800       0.000000
     1024.590300       0.000000
     1025.116400       0.000000
     1025.639500       0.000000
     1026.166800       0.000000
     1026.694500       0.000000
     1027.222900       0.000000
     1027.748400       0.000000
     1028.277800       0.000000
     1028.808000       0.000000
     1029.335300       0.000000
     1029.866600       0.000000
     1030.398600       0.000000
     1030.927500       0.000000
     1031.460700       0.000000
     1031.990700       0.000000
     1032.525000       0.000000
     1033.056400       0.000000
     1033.591700       0.000000
     1034.127800       0.000000
     1034.660900       0.000000
     1035.198300       0.000000
     1035.732500       0.000000
     1036.271000       0.000000
     1036.806500       0.000000
     1037.342600       0.000000
     1037.882900       0.000000
     1038.420200       0.000000
     1038.961700       0.000000
     1039.500200       0.000000
     1040.042900       0.000000
     1040.582600       0.000000
     1041.123000       0.000000
     1041.667500       0.000000
     1042.209100       0.000000
     1042.751300       0.000000
     1043.297600       0.000000
     1043.840900       0.000000
     1044.384900       0.000000
     1044.933100       0.000000
     1045.478300       0.000000
     1046.024000       0.000000
     1046.574300       0.000000
     1047.121300       0.000000
     1047.668900       0.000000
     1048.217200       0.000000
     1048.766100       0.000000
     1049.319300       0.000000
     1049.869400       0.000000
     1050.420200       0.000000
     1050.971600       0.000000
     1051.523600       0.000000
     1052.076100       0.000000
     1052.633200       0.000000
     1053.187100       0.000000
     1053.741600       0.000000
