8,   from S2-SRF_COPE-GSEG-EOPG-TN-15-0007_3.0.xlsx (column S2A_SR_AV_B8)
Number of data points:
139
Wavenumber (cm-1)   Filter response
    11013.215900       0.000000
    11025.358300       0.003943
    11037.527600       0.015744
    11049.723800       0.025932
    11061.946900       0.042754
    11074.197100       0.070316
    11086.474500       0.116507
    11098.779100       0.181890
    11111.111100       0.257205
    11123.470500       0.330090
    11135.857500       0.391368
    11148.272000       0.424567
    11160.714300       0.430070
    11173.184400       0.420866
    11185.682300       0.408294
    11198.208300       0.400873
    11210.762300       0.400391
    11223.344600       0.410514
    11235.955100       0.427985
    11248.593900       0.450928
    11261.261300       0.478112
    11273.957200       0.507635
    11286.681700       0.531446
    11299.435000       0.548220
    11312.217200       0.557680
    11325.028300       0.560111
    11337.868500       0.555231
    11350.737800       0.549125
    11363.636400       0.542353
    11376.564300       0.537051
    11389.521600       0.532534
    11402.508600       0.529968
    11415.525100       0.529515
    11428.571400       0.530511
    11441.647600       0.531928
    11454.753700       0.533312
    11467.889900       0.532468
    11481.056300       0.532719
    11494.252900       0.532115
    11507.479900       0.530367
    11520.737300       0.529847
    11534.025400       0.530165
    11547.344100       0.530937
    11560.693600       0.535102
    11574.074100       0.539581
    11587.485500       0.545682
    11600.928100       0.552351
    11614.401900       0.560942
    11627.907000       0.571365
    11641.443500       0.579934
    11655.011700       0.589890
    11668.611400       0.602496
    11682.243000       0.615642
    11695.906400       0.630051
    11709.601900       0.647369
    11723.329400       0.664745
    11737.089200       0.684108
    11750.881300       0.704126
    11764.705900       0.722624
    11778.563000       0.737004
    11792.452800       0.751197
    11806.375400       0.765184
    11820.331000       0.776916
    11834.319500       0.789203
    11848.341200       0.796991
    11862.396200       0.802409
    11876.484600       0.804519
    11890.606400       0.802602
    11904.761900       0.796838
    11918.951100       0.783948
    11933.174200       0.768185
    11947.431300       0.748406
    11961.722500       0.731246
    11976.047900       0.718240
    11990.407700       0.706927
    12004.801900       0.700938
    12019.230800       0.699245
    12033.694300       0.701572
    12048.192800       0.708270
    12062.726200       0.711594
    12077.294700       0.716164
    12091.898400       0.722292
    12106.537500       0.723042
    12121.212100       0.725639
    12135.922300       0.725077
    12150.668300       0.722712
    12165.450100       0.730794
    12180.268000       0.738722
    12195.122000       0.749628
    12210.012200       0.763603
    12224.938900       0.782339
    12239.902100       0.800781
    12254.902000       0.824639
    12269.938700       0.851603
    12285.012300       0.872888
    12300.123000       0.896208
    12315.270900       0.916724
    12330.456200       0.938658
    12345.679000       0.957211
    12360.939400       0.970786
    12376.237600       0.980709
    12391.573700       0.986242
    12406.947900       0.988577
    12422.360200       0.987646
    12437.810900       0.981445
    12453.300100       0.978106
    12468.827900       0.977228
    12484.394500       0.977939
    12500.000000       0.983912
    12515.644600       0.985927
    12531.328300       0.985444
    12547.051400       0.979665
    12562.814100       0.968289
    12578.616400       0.953957
    12594.458400       0.942273
    12610.340500       0.936946
    12626.262600       0.942080
    12642.225000       0.963892
    12658.227800       0.988407
    12674.271200       1.000000
    12690.355300       0.988942
    12706.480300       0.952846
    12722.646300       0.891157
    12738.853500       0.803039
    12755.102000       0.697667
    12771.392100       0.571416
    12787.723800       0.435540
    12804.097300       0.302463
    12820.512800       0.195911
    12836.970500       0.127485
    12853.470400       0.082999
    12870.012900       0.053287
    12886.597900       0.032311
    12903.225800       0.017524
    12919.896600       0.007030
    12936.610600       0.000290
    12953.367900       0.000000
    12970.168600       0.000000
    12987.013000       0.000000
