  10  ,noaa_05_hirs_10.flt
Number of data points:
67
Wavenumber (cm-1)   Filter response
     1165.000000       0.000000
     1170.100000       0.000000
     1175.400000       0.011709
     1178.700000       0.017800
     1180.600000       0.034998
     1181.800000       0.053882
     1183.400000       0.077329
     1184.100000       0.101160
     1185.200000       0.146240
     1186.100000       0.197880
     1187.500000       0.293130
     1188.100000       0.352560
     1188.700000       0.436620
     1190.300000       0.694980
     1191.500000       0.899130
     1192.000000       0.937190
     1192.600000       0.975210
     1193.600000       0.995580
     1194.700000       0.991320
     1195.200000       0.958230
     1195.900000       0.931600
     1197.100000       0.882630
     1198.000000       0.850960
     1199.300000       0.823880
     1200.800000       0.804820
     1202.400000       0.798230
     1203.700000       0.805230
     1205.200000       0.821600
     1206.400000       0.838670
     1208.200000       0.867720
     1209.700000       0.894100
     1211.300000       0.926610
     1212.400000       0.950200
     1214.300000       0.971310
     1215.800000       0.992250
     1217.300000       1.000000
     1219.500000       0.988300
     1221.400000       0.973050
     1223.500000       0.955710
     1225.500000       0.944300
     1227.100000       0.935170
     1228.300000       0.932330
     1229.800000       0.929400
     1231.200000       0.925790
     1233.300000       0.914100
     1235.900000       0.894610
     1237.700000       0.869740
     1239.400000       0.837670
     1240.600000       0.811910
     1242.500000       0.762570
     1243.900000       0.723220
     1246.000000       0.656320
     1250.100000       0.526790
     1253.100000       0.443850
     1255.500000       0.360460
     1257.600000       0.279590
     1259.300000       0.187550
     1261.900000       0.088611
     1263.300000       0.060804
     1264.600000       0.042097
     1266.300000       0.025272
     1268.400000       0.013275
     1274.800000       0.009259
     1282.400000       0.005154
     1287.100000       0.000969
     1291.200000       0.000000
     1294.700000       0.000000
