13 , goes_09_sounder_13.flt
Number of data points:
566
Wavenumber (cm-1)   Filter response
     2155.700000       0.000134
     2155.800000       0.000194
     2155.900000       0.000261
     2156.000000       0.000332
     2156.100000       0.000408
     2156.200000       0.000488
     2156.300000       0.000570
     2156.400000       0.000652
     2156.500000       0.000736
     2156.600000       0.000820
     2156.700000       0.000906
     2156.800000       0.000994
     2156.900000       0.001085
     2157.000000       0.001179
     2157.100000       0.001277
     2157.200000       0.001380
     2157.300000       0.001488
     2157.400000       0.001602
     2157.500000       0.001723
     2157.600000       0.001850
     2157.700000       0.001985
     2157.800000       0.002127
     2157.900000       0.002276
     2158.000000       0.002434
     2158.100000       0.002599
     2158.200000       0.002773
     2158.300000       0.002955
     2158.400000       0.003147
     2158.500000       0.003348
     2158.600000       0.003558
     2158.700000       0.003778
     2158.800000       0.004008
     2158.900000       0.004249
     2159.000000       0.004501
     2159.100000       0.004765
     2159.200000       0.005040
     2159.300000       0.005326
     2159.400000       0.005626
     2159.500000       0.005937
     2159.600000       0.006262
     2159.700000       0.006600
     2159.800000       0.006951
     2159.900000       0.007317
     2160.000000       0.007696
     2160.100000       0.008089
     2160.200000       0.008498
     2160.300000       0.008920
     2160.400000       0.009359
     2160.500000       0.009812
     2160.600000       0.010281
     2160.700000       0.010764
     2160.800000       0.011263
     2160.900000       0.011777
     2161.000000       0.012306
     2161.100000       0.012850
     2161.200000       0.013408
     2161.300000       0.013981
     2161.400000       0.014569
     2161.500000       0.015171
     2161.600000       0.015787
     2161.700000       0.016417
     2161.800000       0.017062
     2161.900000       0.017719
     2162.000000       0.018391
     2162.100000       0.019076
     2162.200000       0.019773
     2162.300000       0.020484
     2162.400000       0.021208
     2162.500000       0.021944
     2162.600000       0.022693
     2162.700000       0.023454
     2162.800000       0.024226
     2162.900000       0.025011
     2163.000000       0.025807
     2163.100000       0.026614
     2163.200000       0.027433
     2163.300000       0.028262
     2163.400000       0.029102
     2163.500000       0.029952
     2163.600000       0.030813
     2163.700000       0.031685
     2163.800000       0.032566
     2163.900000       0.033457
     2164.000000       0.034359
     2164.100000       0.035271
     2164.200000       0.036192
     2164.300000       0.037124
     2164.400000       0.038065
     2164.500000       0.039016
     2164.600000       0.039980
     2164.700000       0.040960
     2164.800000       0.041960
     2164.900000       0.042982
     2165.000000       0.044029
     2165.100000       0.045106
     2165.200000       0.046214
     2165.300000       0.047357
     2165.400000       0.048539
     2165.500000       0.049763
     2165.600000       0.051031
     2165.700000       0.052349
     2165.800000       0.053720
     2165.900000       0.055147
     2166.000000       0.056635
     2166.100000       0.058188
     2166.200000       0.059808
     2166.300000       0.061501
     2166.400000       0.063269
     2166.500000       0.065116
     2166.600000       0.067047
     2166.700000       0.069066
     2166.800000       0.071176
     2166.900000       0.073382
     2167.000000       0.075687
     2167.100000       0.078096
     2167.200000       0.080613
     2167.300000       0.083241
     2167.400000       0.085985
     2167.500000       0.088848
     2167.600000       0.091838
     2167.700000       0.094958
     2167.800000       0.098215
     2167.900000       0.101615
     2168.000000       0.105163
     2168.100000       0.108865
     2168.200000       0.112727
     2168.300000       0.116754
     2168.400000       0.120953
     2168.500000       0.125329
     2168.600000       0.129891
     2168.700000       0.134648
     2168.800000       0.139609
     2168.900000       0.144782
     2169.000000       0.150177
     2169.100000       0.155803
     2169.200000       0.161668
     2169.300000       0.167782
     2169.400000       0.174153
     2169.500000       0.180791
     2169.600000       0.187706
     2169.700000       0.194907
     2169.800000       0.202406
     2169.900000       0.210213
     2170.000000       0.218338
     2170.100000       0.226792
     2170.200000       0.235586
     2170.300000       0.244728
     2170.400000       0.254230
     2170.500000       0.264097
     2170.600000       0.274309
     2170.700000       0.284841
     2170.800000       0.295668
     2170.900000       0.306766
     2171.000000       0.318109
     2171.100000       0.329672
     2171.200000       0.341431
     2171.300000       0.353359
     2171.400000       0.365434
     2171.500000       0.377634
     2171.600000       0.389966
     2171.700000       0.402439
     2171.800000       0.415065
     2171.900000       0.427854
     2172.000000       0.440817
     2172.100000       0.453965
     2172.200000       0.467307
     2172.300000       0.480857
     2172.400000       0.494622
     2172.500000       0.508609
     2172.600000       0.522791
     2172.700000       0.537137
     2172.800000       0.551616
     2172.900000       0.566196
     2173.000000       0.580844
     2173.100000       0.595531
     2173.200000       0.610223
     2173.300000       0.624888
     2173.400000       0.639497
     2173.500000       0.654023
     2173.600000       0.668474
     2173.700000       0.682863
     2173.800000       0.697203
     2173.900000       0.711509
     2174.000000       0.725793
     2174.100000       0.740070
     2174.200000       0.754353
     2174.300000       0.768656
     2174.400000       0.782992
     2174.500000       0.797354
     2174.600000       0.811641
     2174.700000       0.825734
     2174.800000       0.839512
     2174.900000       0.852855
     2175.000000       0.865641
     2175.100000       0.877749
     2175.200000       0.889060
     2175.300000       0.899453
     2175.400000       0.908806
     2175.500000       0.917036
     2175.600000       0.924206
     2175.700000       0.930415
     2175.800000       0.935765
     2175.900000       0.940355
     2176.000000       0.944285
     2176.100000       0.947654
     2176.200000       0.950563
     2176.300000       0.953112
     2176.400000       0.955401
     2176.500000       0.957514
     2176.600000       0.959474
     2176.700000       0.961288
     2176.800000       0.962964
     2176.900000       0.964509
     2177.000000       0.965929
     2177.100000       0.967233
     2177.200000       0.968427
     2177.300000       0.969519
     2177.400000       0.970516
     2177.500000       0.971425
     2177.600000       0.972246
     2177.700000       0.972979
     2177.800000       0.973626
     2177.900000       0.974187
     2178.000000       0.974661
     2178.100000       0.975049
     2178.200000       0.975351
     2178.300000       0.975567
     2178.400000       0.975699
     2178.500000       0.975748
     2178.600000       0.975729
     2178.700000       0.975660
     2178.800000       0.975557
     2178.900000       0.975438
     2179.000000       0.975319
     2179.100000       0.975219
     2179.200000       0.975153
     2179.300000       0.975140
     2179.400000       0.975195
     2179.500000       0.975333
     2179.600000       0.975550
     2179.700000       0.975837
     2179.800000       0.976186
     2179.900000       0.976589
     2180.000000       0.977039
     2180.100000       0.977526
     2180.200000       0.978044
     2180.300000       0.978584
     2180.400000       0.979137
     2180.500000       0.979695
     2180.600000       0.980244
     2180.700000       0.980767
     2180.800000       0.981250
     2180.900000       0.981677
     2181.000000       0.982033
     2181.100000       0.982301
     2181.200000       0.982467
     2181.300000       0.982515
     2181.400000       0.982430
     2181.500000       0.982203
     2181.600000       0.981851
     2181.700000       0.981399
     2181.800000       0.980870
     2181.900000       0.980290
     2182.000000       0.979683
     2182.100000       0.979072
     2182.200000       0.978482
     2182.300000       0.977938
     2182.400000       0.977463
     2182.500000       0.977075
     2182.600000       0.976761
     2182.700000       0.976503
     2182.800000       0.976281
     2182.900000       0.976077
     2183.000000       0.975870
     2183.100000       0.975643
     2183.200000       0.975375
     2183.300000       0.975048
     2183.400000       0.974642
     2183.500000       0.974144
     2183.600000       0.973558
     2183.700000       0.972895
     2183.800000       0.972165
     2183.900000       0.971379
     2184.000000       0.970547
     2184.100000       0.969680
     2184.200000       0.968788
     2184.300000       0.967880
     2184.400000       0.966968
     2184.500000       0.966062
     2184.600000       0.965170
     2184.700000       0.964299
     2184.800000       0.963460
     2184.900000       0.962658
     2185.000000       0.961904
     2185.100000       0.961204
     2185.200000       0.960568
     2185.300000       0.960002
     2185.400000       0.959516
     2185.500000       0.959115
     2185.600000       0.958799
     2185.700000       0.958565
     2185.800000       0.958410
     2185.900000       0.958330
     2186.000000       0.958324
     2186.100000       0.958388
     2186.200000       0.958519
     2186.300000       0.958714
     2186.400000       0.958971
     2186.500000       0.959288
     2186.600000       0.959665
     2186.700000       0.960106
     2186.800000       0.960612
     2186.900000       0.961185
     2187.000000       0.961828
     2187.100000       0.962544
     2187.200000       0.963334
     2187.300000       0.964201
     2187.400000       0.965146
     2187.500000       0.966171
     2187.600000       0.967269
     2187.700000       0.968433
     2187.800000       0.969653
     2187.900000       0.970923
     2188.000000       0.972235
     2188.100000       0.973580
     2188.200000       0.974950
     2188.300000       0.976338
     2188.400000       0.977735
     2188.500000       0.979136
     2188.600000       0.980536
     2188.700000       0.981935
     2188.800000       0.983330
     2188.900000       0.984720
     2189.000000       0.986103
     2189.100000       0.987479
     2189.200000       0.988844
     2189.300000       0.990198
     2189.400000       0.991538
     2189.500000       0.992859
     2189.600000       0.994141
     2189.700000       0.995359
     2189.800000       0.996487
     2189.900000       0.997501
     2190.000000       0.998377
     2190.100000       0.999090
     2190.200000       0.999614
     2190.300000       0.999926
     2190.400000       1.000000
     2190.500000       0.999815
     2190.600000       0.999362
     2190.700000       0.998634
     2190.800000       0.997626
     2190.900000       0.996332
     2191.000000       0.994744
     2191.100000       0.992859
     2191.200000       0.990668
     2191.300000       0.988167
     2191.400000       0.985350
     2191.500000       0.982204
     2191.600000       0.978700
     2191.700000       0.974802
     2191.800000       0.970475
     2191.900000       0.965681
     2192.000000       0.960387
     2192.100000       0.954557
     2192.200000       0.948154
     2192.300000       0.941144
     2192.400000       0.933490
     2192.500000       0.925166
     2192.600000       0.916177
     2192.700000       0.906540
     2192.800000       0.896269
     2192.900000       0.885380
     2193.000000       0.873888
     2193.100000       0.861807
     2193.200000       0.849154
     2193.300000       0.835943
     2193.400000       0.822189
     2193.500000       0.807915
     2193.600000       0.793175
     2193.700000       0.778032
     2193.800000       0.762546
     2193.900000       0.746779
     2194.000000       0.730794
     2194.100000       0.714651
     2194.200000       0.698413
     2194.300000       0.682140
     2194.400000       0.665896
     2194.500000       0.649732
     2194.600000       0.633667
     2194.700000       0.617709
     2194.800000       0.601866
     2194.900000       0.586148
     2195.000000       0.570564
     2195.100000       0.555121
     2195.200000       0.539829
     2195.300000       0.524696
     2195.400000       0.509732
     2195.500000       0.494943
     2195.600000       0.480332
     2195.700000       0.465902
     2195.800000       0.451652
     2195.900000       0.437584
     2196.000000       0.423700
     2196.100000       0.410001
     2196.200000       0.396489
     2196.300000       0.383164
     2196.400000       0.370029
     2196.500000       0.357085
     2196.600000       0.344337
     2196.700000       0.331792
     2196.800000       0.319456
     2196.900000       0.307336
     2197.000000       0.295436
     2197.100000       0.283765
     2197.200000       0.272327
     2197.300000       0.261129
     2197.400000       0.250176
     2197.500000       0.239481
     2197.600000       0.229071
     2197.700000       0.218981
     2197.800000       0.209244
     2197.900000       0.199895
     2198.000000       0.190965
     2198.100000       0.182489
     2198.200000       0.174502
     2198.300000       0.167035
     2198.400000       0.160124
     2198.500000       0.153784
     2198.600000       0.147966
     2198.700000       0.142601
     2198.800000       0.137622
     2198.900000       0.132962
     2199.000000       0.128552
     2199.100000       0.124326
     2199.200000       0.120215
     2199.300000       0.116153
     2199.400000       0.112071
     2199.500000       0.107920
     2199.600000       0.103715
     2199.700000       0.099491
     2199.800000       0.095282
     2199.900000       0.091123
     2200.000000       0.087046
     2200.100000       0.083085
     2200.200000       0.079276
     2200.300000       0.075651
     2200.400000       0.072245
     2200.500000       0.069083
     2200.600000       0.066155
     2200.700000       0.063444
     2200.800000       0.060930
     2200.900000       0.058596
     2201.000000       0.056423
     2201.100000       0.054392
     2201.200000       0.052487
     2201.300000       0.050687
     2201.400000       0.048976
     2201.500000       0.047338
     2201.600000       0.045768
     2201.700000       0.044265
     2201.800000       0.042829
     2201.900000       0.041458
     2202.000000       0.040150
     2202.100000       0.038906
     2202.200000       0.037723
     2202.300000       0.036601
     2202.400000       0.035538
     2202.500000       0.034532
     2202.600000       0.033578
     2202.700000       0.032669
     2202.800000       0.031799
     2202.900000       0.030963
     2203.000000       0.030153
     2203.100000       0.029363
     2203.200000       0.028588
     2203.300000       0.027820
     2203.400000       0.027053
     2203.500000       0.026282
     2203.600000       0.025509
     2203.700000       0.024734
     2203.800000       0.023960
     2203.900000       0.023189
     2204.000000       0.022422
     2204.100000       0.021661
     2204.200000       0.020908
     2204.300000       0.020165
     2204.400000       0.019434
     2204.500000       0.018717
     2204.600000       0.018014
     2204.700000       0.017327
     2204.800000       0.016656
     2204.900000       0.016003
     2205.000000       0.015368
     2205.100000       0.014753
     2205.200000       0.014157
     2205.300000       0.013583
     2205.400000       0.013031
     2205.500000       0.012502
     2205.600000       0.011995
     2205.700000       0.011510
     2205.800000       0.011047
     2205.900000       0.010605
     2206.000000       0.010184
     2206.100000       0.009783
     2206.200000       0.009401
     2206.300000       0.009039
     2206.400000       0.008695
     2206.500000       0.008369
     2206.600000       0.008061
     2206.700000       0.007770
     2206.800000       0.007495
     2206.900000       0.007236
     2207.000000       0.006991
     2207.100000       0.006761
     2207.200000       0.006544
     2207.300000       0.006340
     2207.400000       0.006148
     2207.500000       0.005968
     2207.600000       0.005798
     2207.700000       0.005639
     2207.800000       0.005490
     2207.900000       0.005349
     2208.000000       0.005217
     2208.100000       0.005092
     2208.200000       0.004974
     2208.300000       0.004863
     2208.400000       0.004757
     2208.500000       0.004656
     2208.600000       0.004560
     2208.700000       0.004467
     2208.800000       0.004377
     2208.900000       0.004290
     2209.000000       0.004205
     2209.100000       0.004121
     2209.200000       0.004038
     2209.300000       0.003954
     2209.400000       0.003870
     2209.500000       0.003784
     2209.600000       0.003696
     2209.700000       0.003606
     2209.800000       0.003511
     2209.900000       0.003412
     2210.000000       0.003307
     2210.100000       0.003196
     2210.200000       0.003079
     2210.300000       0.002953
     2210.400000       0.002819
     2210.500000       0.002675
     2210.600000       0.002524
     2210.700000       0.002366
     2210.800000       0.002202
     2210.900000       0.002035
     2211.000000       0.001865
     2211.100000       0.001694
     2211.200000       0.001524
     2211.300000       0.001355
     2211.400000       0.001189
     2211.500000       0.001028
     2211.600000       0.000872
     2211.700000       0.000724
     2211.800000       0.000584
     2211.900000       0.000454
     2212.000000       0.000336
     2212.100000       0.000230
     2212.200000       0.000137
