   3, extracted from file vas_g06.srf.nc
Number of data points:
289
Wavenumber (cm-1)   Filter response
      685.500000       0.005562
      685.600000       0.009293
      685.700000       0.009788
      685.800000       0.010745
      685.900000       0.011704
      686.000000       0.012660
      686.100000       0.013615
      686.200000       0.014571
      686.300000       0.015498
      686.400000       0.016664
      686.500000       0.018268
      686.600000       0.020029
      686.700000       0.021769
      686.800000       0.023464
      686.900000       0.025559
      687.000000       0.028113
      687.100000       0.030683
      687.200000       0.033246
      687.300000       0.035807
      687.400000       0.038360
      687.500000       0.040897
      687.600000       0.043436
      687.700000       0.045976
      687.800000       0.048506
      687.900000       0.051015
      688.000000       0.053505
      688.100000       0.055998
      688.200000       0.058493
      688.300000       0.060971
      688.400000       0.063427
      688.500000       0.065874
      688.600000       0.068321
      688.700000       0.070503
      688.800000       0.075066
      688.900000       0.082159
      689.000000       0.089105
      689.100000       0.096034
      689.200000       0.102978
      689.300000       0.110044
      689.400000       0.117219
      689.500000       0.124370
      689.600000       0.131411
      689.700000       0.139321
      689.800000       0.149471
      689.900000       0.160757
      690.000000       0.171888
      690.100000       0.182878
      690.200000       0.195097
      690.300000       0.209199
      690.400000       0.223764
      690.500000       0.238241
      690.600000       0.252407
      690.700000       0.269363
      690.800000       0.289372
      690.900000       0.309332
      691.000000       0.329209
      691.100000       0.349169
      691.200000       0.370530
      691.300000       0.393054
      691.400000       0.415483
      691.500000       0.437881
      691.600000       0.460238
      691.700000       0.482453
      691.800000       0.504579
      691.900000       0.526754
      692.000000       0.548915
      692.100000       0.570883
      692.200000       0.592485
      692.300000       0.613957
      692.400000       0.635482
      692.500000       0.656982
      692.600000       0.678386
      692.700000       0.699660
      692.800000       0.720916
      692.900000       0.742210
      693.000000       0.763483
      693.100000       0.784621
      693.200000       0.805616
      693.300000       0.826623
      693.400000       0.847756
      693.500000       0.868430
      693.600000       0.884765
      693.700000       0.897674
      693.800000       0.910972
      693.900000       0.924425
      694.000000       0.936885
      694.100000       0.946180
      694.200000       0.953638
      694.300000       0.961314
      694.400000       0.969120
      694.500000       0.975962
      694.600000       0.980932
      694.700000       0.985191
      694.800000       0.989541
      694.900000       0.994069
      695.000000       0.997120
      695.100000       0.998072
      695.200000       0.998630
      695.300000       0.999251
      695.400000       1.000000
      695.500000       0.999614
      695.600000       0.997947
      695.700000       0.996279
      695.800000       0.994626
      695.900000       0.992970
      696.000000       0.991318
      696.100000       0.989667
      696.200000       0.988017
      696.300000       0.986366
      696.400000       0.984713
      696.500000       0.983064
      696.600000       0.981416
      696.700000       0.979768
      696.800000       0.978119
      696.900000       0.976469
      697.000000       0.974822
      697.100000       0.973175
      697.200000       0.971529
      697.300000       0.969876
      697.400000       0.968273
      697.500000       0.966790
      697.600000       0.965358
      697.700000       0.963921
      697.800000       0.962409
      697.900000       0.961514
      698.000000       0.961659
      698.100000       0.962112
      698.200000       0.962522
      698.300000       0.962933
      698.400000       0.963344
      698.500000       0.963754
      698.600000       0.964164
      698.700000       0.964573
      698.800000       0.964983
      698.900000       0.965394
      699.000000       0.965803
      699.100000       0.966212
      699.200000       0.966621
      699.300000       0.967030
      699.400000       0.967440
      699.500000       0.967848
      699.600000       0.968257
      699.700000       0.968660
      699.800000       0.969064
      699.900000       0.969928
      700.000000       0.971198
      700.100000       0.972422
      700.200000       0.973647
      700.300000       0.974871
      700.400000       0.976096
      700.500000       0.977319
      700.600000       0.978541
      700.700000       0.979816
      700.800000       0.980747
      700.900000       0.980074
      701.000000       0.978321
      701.100000       0.976693
      701.200000       0.975065
      701.300000       0.973438
      701.400000       0.971809
      701.500000       0.970183
      701.600000       0.968557
      701.700000       0.966936
      701.800000       0.965271
      701.900000       0.963491
      702.000000       0.961659
      702.100000       0.959833
      702.200000       0.958067
      702.300000       0.955813
      702.400000       0.952529
      702.500000       0.948827
      702.600000       0.945179
      702.700000       0.941538
      702.800000       0.937838
      702.900000       0.934021
      703.000000       0.930173
      703.100000       0.926330
      703.200000       0.922594
      703.300000       0.917953
      703.400000       0.911829
      703.500000       0.905306
      703.600000       0.898839
      703.700000       0.892443
      703.800000       0.885444
      703.900000       0.877530
      704.000000       0.869430
      704.100000       0.861359
      704.200000       0.853439
      704.300000       0.844218
      704.400000       0.833171
      704.500000       0.821834
      704.600000       0.810546
      704.700000       0.799503
      704.800000       0.786315
      704.900000       0.770287
      705.000000       0.753927
      705.100000       0.737632
      705.200000       0.721428
      705.300000       0.704424
      705.400000       0.686383
      705.500000       0.668277
      705.600000       0.650189
      705.700000       0.632099
      705.800000       0.614028
      705.900000       0.595946
      706.000000       0.577896
      706.100000       0.559844
      706.200000       0.541779
      706.300000       0.523820
      706.400000       0.505953
      706.500000       0.488123
      706.600000       0.470289
      706.700000       0.452452
      706.800000       0.434631
      706.900000       0.416795
      707.000000       0.398989
      707.100000       0.381180
      707.200000       0.363359
      707.300000       0.345649
      707.400000       0.328037
      707.500000       0.310459
      707.600000       0.292876
      707.700000       0.275097
      707.800000       0.259045
      707.900000       0.245001
      708.000000       0.231068
      708.100000       0.217102
      708.200000       0.202902
      708.300000       0.190768
      708.400000       0.181091
      708.500000       0.171571
      708.600000       0.162009
      708.700000       0.152383
      708.800000       0.143310
      708.900000       0.134902
      709.000000       0.126561
      709.100000       0.118206
      709.200000       0.109714
      709.300000       0.102417
      709.400000       0.096634
      709.500000       0.091027
      709.600000       0.085386
      709.700000       0.079705
      709.800000       0.074368
      709.900000       0.069483
      710.000000       0.064673
      710.100000       0.059850
      710.200000       0.054900
      710.300000       0.051054
      710.400000       0.048778
      710.500000       0.046806
      710.600000       0.044786
      710.700000       0.042764
      710.800000       0.040751
      710.900000       0.038747
      711.000000       0.036750
      711.100000       0.034751
      711.200000       0.032750
      711.300000       0.030765
      711.400000       0.028801
      711.500000       0.026846
      711.600000       0.024891
      711.700000       0.022924
      711.800000       0.021060
      711.900000       0.019394
      712.000000       0.017805
      712.100000       0.016207
      712.200000       0.014577
      712.300000       0.013202
      712.400000       0.012402
      712.500000       0.011863
      712.600000       0.011292
      712.700000       0.010720
      712.800000       0.010153
      712.900000       0.009596
      713.000000       0.009046
      713.100000       0.008495
      713.200000       0.007945
      713.300000       0.007393
      713.400000       0.006842
      713.500000       0.006293
      713.600000       0.005743
      713.700000       0.005192
      713.800000       0.004642
      713.900000       0.004092
      714.000000       0.003543
      714.100000       0.002994
      714.200000       0.002445
      714.300000       0.001898
