   7, extracted from file vas_g05.srf.nc
Number of data points:
423
Wavenumber (cm-1)   Filter response
      768.800000       0.001212
      768.900000       0.001585
      769.000000       0.001957
      769.100000       0.002329
      769.200000       0.002702
      769.300000       0.003063
      769.400000       0.003405
      769.500000       0.003742
      769.600000       0.004080
      769.700000       0.004418
      769.800000       0.004754
      769.900000       0.005105
      770.000000       0.005473
      770.100000       0.005845
      770.200000       0.006215
      770.300000       0.006586
      770.400000       0.006959
      770.500000       0.007322
      770.600000       0.007677
      770.700000       0.008030
      770.800000       0.008384
      770.900000       0.008739
      771.000000       0.009092
      771.100000       0.009445
      771.200000       0.009798
      771.300000       0.010151
      771.400000       0.010505
      771.500000       0.010858
      771.600000       0.011211
      771.700000       0.011564
      771.800000       0.011916
      771.900000       0.012268
      772.000000       0.012621
      772.100000       0.012973
      772.200000       0.013290
      772.300000       0.013926
      772.400000       0.014882
      772.500000       0.015804
      772.600000       0.016725
      772.700000       0.017648
      772.800000       0.018570
      772.900000       0.019492
      773.000000       0.020412
      773.100000       0.021332
      773.200000       0.022253
      773.300000       0.023173
      773.400000       0.024094
      773.500000       0.025023
      773.600000       0.025959
      773.700000       0.026895
      773.800000       0.027829
      773.900000       0.028766
      774.000000       0.029698
      774.100000       0.030705
      774.200000       0.031780
      774.300000       0.032847
      774.400000       0.033916
      774.500000       0.034982
      774.600000       0.036043
      774.700000       0.037262
      774.800000       0.038628
      774.900000       0.039979
      775.000000       0.041327
      775.100000       0.042672
      775.200000       0.043985
      775.300000       0.046063
      775.400000       0.048857
      775.500000       0.051566
      775.600000       0.054276
      775.700000       0.056984
      775.800000       0.059670
      775.900000       0.062741
      776.000000       0.066168
      776.100000       0.069556
      776.200000       0.072943
      776.300000       0.076326
      776.400000       0.079605
      776.500000       0.084225
      776.600000       0.090157
      776.700000       0.095943
      776.800000       0.101727
      776.900000       0.107522
      777.000000       0.113306
      777.100000       0.119095
      777.200000       0.124888
      777.300000       0.130680
      777.400000       0.136482
      777.500000       0.142274
      777.600000       0.148066
      777.700000       0.153864
      777.800000       0.159665
      777.900000       0.165476
      778.000000       0.171278
      778.100000       0.177080
      778.200000       0.182737
      778.300000       0.189684
      778.400000       0.198093
      778.500000       0.206489
      778.600000       0.214870
      778.700000       0.223250
      778.800000       0.231559
      778.900000       0.240509
      779.000000       0.250208
      779.100000       0.259960
      779.200000       0.269698
      779.300000       0.279435
      779.400000       0.288970
      779.500000       0.300387
      779.600000       0.314365
      779.700000       0.328710
      779.800000       0.342987
      779.900000       0.357289
      780.000000       0.371566
      780.100000       0.385843
      780.200000       0.400118
      780.300000       0.414389
      780.400000       0.428683
      780.500000       0.442954
      780.600000       0.457185
      780.700000       0.471768
      780.800000       0.486983
      780.900000       0.502432
      781.000000       0.517828
      781.100000       0.533226
      781.200000       0.548612
      781.300000       0.564096
      781.400000       0.579832
      781.500000       0.595641
      781.600000       0.611441
      781.700000       0.627240
      781.800000       0.643054
      781.900000       0.658766
      782.000000       0.674060
      782.100000       0.689138
      782.200000       0.704242
      782.300000       0.719344
      782.400000       0.734558
      782.500000       0.749190
      782.600000       0.760970
      782.700000       0.770778
      782.800000       0.780813
      782.900000       0.790865
      783.000000       0.800901
      783.100000       0.810938
      783.200000       0.820975
      783.300000       0.831010
      783.400000       0.841063
      783.500000       0.851099
      783.600000       0.861136
      783.700000       0.871173
      783.800000       0.881208
      783.900000       0.891261
      784.000000       0.901297
      784.100000       0.911335
      784.200000       0.921372
      784.300000       0.931690
      784.400000       0.939534
      784.500000       0.944434
      784.600000       0.949215
      784.700000       0.954041
      784.800000       0.958866
      784.900000       0.963767
      785.000000       0.968082
      785.100000       0.971544
      785.200000       0.974824
      785.300000       0.978132
      785.400000       0.981445
      785.500000       0.984825
      785.600000       0.987618
      785.700000       0.989217
      785.800000       0.990338
      785.900000       0.991522
      786.000000       0.992704
      786.100000       0.993894
      786.200000       0.995026
      786.300000       0.995955
      786.400000       0.996767
      786.500000       0.997591
      786.600000       0.998416
      786.700000       0.999266
      786.800000       1.000000
      786.900000       0.999434
      787.000000       0.997830
      787.100000       0.996345
      787.200000       0.994859
      787.300000       0.993374
      787.400000       0.991885
      787.500000       0.990409
      787.600000       0.988944
      787.700000       0.987478
      787.800000       0.986012
      787.900000       0.984542
      788.000000       0.983077
      788.100000       0.981606
      788.200000       0.980125
      788.300000       0.978645
      788.400000       0.977162
      788.500000       0.975681
      788.600000       0.974201
      788.700000       0.972720
      788.800000       0.971242
      788.900000       0.969762
      789.000000       0.968285
      789.100000       0.966807
      789.200000       0.965329
      789.300000       0.963850
      789.400000       0.962360
      789.500000       0.960868
      789.600000       0.959376
      789.700000       0.957885
      789.800000       0.956395
      789.900000       0.954901
      790.000000       0.953303
      790.100000       0.951610
      790.200000       0.949928
      790.300000       0.948246
      790.400000       0.946561
      790.500000       0.944933
      790.600000       0.942832
      790.700000       0.940176
      790.800000       0.937498
      790.900000       0.934824
      791.000000       0.932154
      791.100000       0.929483
      791.200000       0.926819
      791.300000       0.924166
      791.400000       0.921512
      791.500000       0.918863
      791.600000       0.916213
      791.700000       0.913563
      791.800000       0.910911
      791.900000       0.908248
      792.000000       0.905586
      792.100000       0.902923
      792.200000       0.900260
      792.300000       0.897598
      792.400000       0.894931
      792.500000       0.892271
      792.600000       0.889613
      792.700000       0.886956
      792.800000       0.884299
      792.900000       0.881637
      793.000000       0.878980
      793.100000       0.876318
      793.200000       0.873649
      793.300000       0.870980
      793.400000       0.868306
      793.500000       0.865638
      793.600000       0.862967
      793.700000       0.860302
      793.800000       0.857648
      793.900000       0.854996
      794.000000       0.852347
      794.100000       0.849697
      794.200000       0.847073
      794.300000       0.844327
      794.400000       0.840347
      794.500000       0.835406
      794.600000       0.830575
      794.700000       0.825744
      794.800000       0.820913
      794.900000       0.816102
      795.000000       0.811057
      795.100000       0.805732
      795.200000       0.800400
      795.300000       0.795073
      795.400000       0.789737
      795.500000       0.784410
      795.600000       0.779084
      795.700000       0.773760
      795.800000       0.768440
      795.900000       0.763110
      796.000000       0.757789
      796.100000       0.752490
      796.200000       0.747068
      796.300000       0.740702
      796.400000       0.733608
      796.500000       0.726608
      796.600000       0.719608
      796.700000       0.712608
      796.800000       0.705658
      796.900000       0.698252
      797.000000       0.690344
      797.100000       0.682421
      797.200000       0.674506
      797.300000       0.666592
      797.400000       0.658663
      797.500000       0.650752
      797.600000       0.642845
      797.700000       0.634942
      797.800000       0.627040
      797.900000       0.619124
      798.000000       0.611222
      798.100000       0.603318
      798.200000       0.595412
      798.300000       0.587506
      798.400000       0.579587
      798.500000       0.571682
      798.600000       0.563774
      798.700000       0.555869
      798.800000       0.547944
      798.900000       0.539978
      799.000000       0.532021
      799.100000       0.524063
      799.200000       0.516105
      799.300000       0.508159
      799.400000       0.500126
      799.500000       0.491886
      799.600000       0.483522
      799.700000       0.475173
      799.800000       0.466825
      799.900000       0.458464
      800.000000       0.450131
      800.100000       0.441661
      800.200000       0.433057
      800.300000       0.424469
      800.400000       0.415866
      800.500000       0.407278
      800.600000       0.398687
      800.700000       0.390115
      800.800000       0.381580
      800.900000       0.373041
      801.000000       0.364516
      801.100000       0.355990
      801.200000       0.347463
      801.300000       0.338941
      801.400000       0.330447
      801.500000       0.322001
      801.600000       0.313550
      801.700000       0.305099
      801.800000       0.296650
      801.900000       0.288158
      802.000000       0.279921
      802.100000       0.272014
      802.200000       0.264159
      802.300000       0.256298
      802.400000       0.248422
      802.500000       0.240529
      802.600000       0.232848
      802.700000       0.226036
      802.800000       0.219787
      802.900000       0.213463
      803.000000       0.207149
      803.100000       0.200833
      803.200000       0.194516
      803.300000       0.188220
      803.400000       0.181938
      803.500000       0.175666
      803.600000       0.169395
      803.700000       0.163122
      803.800000       0.156841
      803.900000       0.150625
      804.000000       0.144633
      804.100000       0.138755
      804.200000       0.132863
      804.300000       0.126972
      804.400000       0.121072
      804.500000       0.115077
      804.600000       0.110013
      804.700000       0.105934
      804.800000       0.101802
      804.900000       0.097658
      805.000000       0.093520
      805.100000       0.089344
      805.200000       0.085467
      805.300000       0.082315
      805.400000       0.079502
      805.500000       0.076651
      805.600000       0.073800
      805.700000       0.070949
      805.800000       0.068051
      805.900000       0.065575
      806.000000       0.063538
      806.100000       0.061461
      806.200000       0.059383
      806.300000       0.057305
      806.400000       0.055222
      806.500000       0.053151
      806.600000       0.051100
      806.700000       0.049057
      806.800000       0.047014
      806.900000       0.044967
      807.000000       0.042925
      807.100000       0.040856
      807.200000       0.039016
      807.300000       0.037411
      807.400000       0.035783
      807.500000       0.034158
      807.600000       0.032532
      807.700000       0.030897
      807.800000       0.029340
      807.900000       0.027980
      808.000000       0.026721
      808.100000       0.025449
      808.200000       0.024178
      808.300000       0.022907
      808.400000       0.021630
      808.500000       0.020388
      808.600000       0.019181
      808.700000       0.017973
      808.800000       0.016766
      808.900000       0.015556
      809.000000       0.014332
      809.100000       0.013225
      809.200000       0.012478
      809.300000       0.011938
      809.400000       0.011373
      809.500000       0.010809
      809.600000       0.010244
      809.700000       0.009678
      809.800000       0.009120
      809.900000       0.008570
      810.000000       0.008022
      810.100000       0.007472
      810.200000       0.006923
      810.300000       0.006375
      810.400000       0.005824
      810.500000       0.005266
      810.600000       0.004702
      810.700000       0.004139
      810.800000       0.003576
      810.900000       0.003013
      811.000000       0.002450
