  13  ,noaa_19_hirs_13.flt
Number of data points:
529
Wavenumber (cm-1)   Filter response
     2158.400000       0.000000
     2158.500000       0.000069
     2158.600000       0.000161
     2158.700000       0.000260
     2158.800000       0.000363
     2158.900000       0.000469
     2159.000000       0.000578
     2159.100000       0.000690
     2159.200000       0.000812
     2159.300000       0.000939
     2159.400000       0.001070
     2159.500000       0.001203
     2159.600000       0.001340
     2159.700000       0.001479
     2159.800000       0.001621
     2159.900000       0.001768
     2160.000000       0.001918
     2160.100000       0.002068
     2160.200000       0.002218
     2160.300000       0.002369
     2160.400000       0.002520
     2160.500000       0.002676
     2160.600000       0.002834
     2160.700000       0.002993
     2160.800000       0.003154
     2160.900000       0.003321
     2161.000000       0.003488
     2161.100000       0.003657
     2161.200000       0.003827
     2161.300000       0.003999
     2161.400000       0.004175
     2161.500000       0.004363
     2161.600000       0.004553
     2161.700000       0.004743
     2161.800000       0.004938
     2161.900000       0.005133
     2162.000000       0.005336
     2162.100000       0.005552
     2162.200000       0.005771
     2162.300000       0.005997
     2162.400000       0.006245
     2162.500000       0.006499
     2162.600000       0.006760
     2162.700000       0.007039
     2162.800000       0.007331
     2162.900000       0.007644
     2163.000000       0.008017
     2163.100000       0.008395
     2163.200000       0.008775
     2163.300000       0.009163
     2163.400000       0.009554
     2163.500000       0.009979
     2163.600000       0.010407
     2163.700000       0.010838
     2163.800000       0.011303
     2163.900000       0.011777
     2164.000000       0.012251
     2164.100000       0.012780
     2164.200000       0.013327
     2164.300000       0.013901
     2164.400000       0.014482
     2164.500000       0.015071
     2164.600000       0.015663
     2164.700000       0.016264
     2164.800000       0.016867
     2164.900000       0.017484
     2165.000000       0.018110
     2165.100000       0.018738
     2165.200000       0.019378
     2165.300000       0.020032
     2165.400000       0.020698
     2165.500000       0.021369
     2165.600000       0.022046
     2165.700000       0.022723
     2165.800000       0.023476
     2165.900000       0.024331
     2166.000000       0.025264
     2166.100000       0.026182
     2166.200000       0.027085
     2166.300000       0.027985
     2166.400000       0.028823
     2166.500000       0.029640
     2166.600000       0.030485
     2166.700000       0.031409
     2166.800000       0.032352
     2166.900000       0.033314
     2167.000000       0.034392
     2167.100000       0.035511
     2167.200000       0.036648
     2167.300000       0.037831
     2167.400000       0.039052
     2167.500000       0.040410
     2167.600000       0.041919
     2167.700000       0.043568
     2167.800000       0.045370
     2167.900000       0.047238
     2168.000000       0.049168
     2168.100000       0.051179
     2168.200000       0.053291
     2168.300000       0.055541
     2168.400000       0.057940
     2168.500000       0.060483
     2168.600000       0.063116
     2168.700000       0.065849
     2168.800000       0.068688
     2168.900000       0.071617
     2169.000000       0.074623
     2169.100000       0.077705
     2169.200000       0.080904
     2169.300000       0.084305
     2169.400000       0.087903
     2169.500000       0.091649
     2169.600000       0.095517
     2169.700000       0.099491
     2169.800000       0.103568
     2169.900000       0.107810
     2170.000000       0.112230
     2170.100000       0.116835
     2170.200000       0.121614
     2170.300000       0.126549
     2170.400000       0.131634
     2170.500000       0.136859
     2170.600000       0.142205
     2170.700000       0.147728
     2170.800000       0.153412
     2170.900000       0.159275
     2171.000000       0.165355
     2171.100000       0.171681
     2171.200000       0.178222
     2171.300000       0.184926
     2171.400000       0.191713
     2171.500000       0.198658
     2171.600000       0.205786
     2171.700000       0.213170
     2171.800000       0.220857
     2171.900000       0.228808
     2172.000000       0.236988
     2172.100000       0.245421
     2172.200000       0.254084
     2172.300000       0.262950
     2172.400000       0.272018
     2172.500000       0.281279
     2172.600000       0.290732
     2172.700000       0.300295
     2172.800000       0.309933
     2172.900000       0.319663
     2173.000000       0.329445
     2173.100000       0.339235
     2173.200000       0.349058
     2173.300000       0.359013
     2173.400000       0.369115
     2173.500000       0.379273
     2173.600000       0.389462
     2173.700000       0.399670
     2173.800000       0.409907
     2173.900000       0.420153
     2174.000000       0.430404
     2174.100000       0.440663
     2174.200000       0.450908
     2174.300000       0.461145
     2174.400000       0.471380
     2174.500000       0.481617
     2174.600000       0.491869
     2174.700000       0.502087
     2174.800000       0.512234
     2174.900000       0.522272
     2175.000000       0.532198
     2175.100000       0.542067
     2175.200000       0.551911
     2175.300000       0.561702
     2175.400000       0.571397
     2175.500000       0.581018
     2175.600000       0.590545
     2175.700000       0.599935
     2175.800000       0.609158
     2175.900000       0.618237
     2176.000000       0.627211
     2176.100000       0.636119
     2176.200000       0.644914
     2176.300000       0.653598
     2176.400000       0.662166
     2176.500000       0.670603
     2176.600000       0.678849
     2176.700000       0.686955
     2176.800000       0.694937
     2176.900000       0.702788
     2177.000000       0.710505
     2177.100000       0.718068
     2177.200000       0.725473
     2177.300000       0.732748
     2177.400000       0.739886
     2177.500000       0.746831
     2177.600000       0.753521
     2177.700000       0.759984
     2177.800000       0.766213
     2177.900000       0.772295
     2178.000000       0.778252
     2178.100000       0.784046
     2178.200000       0.789666
     2178.300000       0.795092
     2178.400000       0.800304
     2178.500000       0.805356
     2178.600000       0.810259
     2178.700000       0.815054
     2178.800000       0.819721
     2178.900000       0.824255
     2179.000000       0.828694
     2179.100000       0.832999
     2179.200000       0.837194
     2179.300000       0.841251
     2179.400000       0.845138
     2179.500000       0.848904
     2179.600000       0.852559
     2179.700000       0.856102
     2179.800000       0.859607
     2179.900000       0.863049
     2180.000000       0.866415
     2180.100000       0.869684
     2180.200000       0.872950
     2180.300000       0.876179
     2180.400000       0.879381
     2180.500000       0.882521
     2180.600000       0.885563
     2180.700000       0.888532
     2180.800000       0.891440
     2180.900000       0.894314
     2181.000000       0.897190
     2181.100000       0.900054
     2181.200000       0.902902
     2181.300000       0.905780
     2181.400000       0.908722
     2181.500000       0.911707
     2181.600000       0.914691
     2181.700000       0.917614
     2181.800000       0.920453
     2181.900000       0.923249
     2182.000000       0.926049
     2182.100000       0.928882
     2182.200000       0.931660
     2182.300000       0.934421
     2182.400000       0.937138
     2182.500000       0.939802
     2182.600000       0.942471
     2182.700000       0.945128
     2182.800000       0.947732
     2182.900000       0.950284
     2183.000000       0.952793
     2183.100000       0.955325
     2183.200000       0.957920
     2183.300000       0.960521
     2183.400000       0.963061
     2183.500000       0.965516
     2183.600000       0.967855
     2183.700000       0.970103
     2183.800000       0.972319
     2183.900000       0.974489
     2184.000000       0.976586
     2184.100000       0.978615
     2184.200000       0.980612
     2184.300000       0.982564
     2184.400000       0.984453
     2184.500000       0.986225
     2184.600000       0.987861
     2184.700000       0.989379
     2184.800000       0.990780
     2184.900000       0.992083
     2185.000000       0.993277
     2185.100000       0.994325
     2185.200000       0.995328
     2185.300000       0.996294
     2185.400000       0.997211
     2185.500000       0.998041
     2185.600000       0.998753
     2185.700000       0.999299
     2185.800000       0.999648
     2185.900000       0.999856
     2186.000000       0.999970
     2186.100000       1.000000
     2186.200000       0.999926
     2186.300000       0.999772
     2186.400000       0.999578
     2186.500000       0.999308
     2186.600000       0.998946
     2186.700000       0.998458
     2186.800000       0.997787
     2186.900000       0.996932
     2187.000000       0.995929
     2187.100000       0.994809
     2187.200000       0.993618
     2187.300000       0.992346
     2187.400000       0.990938
     2187.500000       0.989393
     2187.600000       0.987748
     2187.700000       0.986035
     2187.800000       0.984278
     2187.900000       0.982420
     2188.000000       0.980433
     2188.100000       0.978322
     2188.200000       0.976108
     2188.300000       0.973781
     2188.400000       0.971306
     2188.500000       0.968614
     2188.600000       0.965677
     2188.700000       0.962550
     2188.800000       0.959305
     2188.900000       0.956000
     2189.000000       0.952667
     2189.100000       0.949250
     2189.200000       0.945735
     2189.300000       0.942130
     2189.400000       0.938420
     2189.500000       0.934587
     2189.600000       0.930581
     2189.700000       0.926332
     2189.800000       0.921858
     2189.900000       0.917207
     2190.000000       0.912441
     2190.100000       0.907591
     2190.200000       0.902620
     2190.300000       0.897467
     2190.400000       0.892119
     2190.500000       0.886603
     2190.600000       0.880949
     2190.700000       0.875148
     2190.800000       0.869229
     2190.900000       0.863152
     2191.000000       0.856925
     2191.100000       0.850496
     2191.200000       0.843852
     2191.300000       0.836973
     2191.400000       0.829831
     2191.500000       0.822506
     2191.600000       0.815058
     2191.700000       0.807476
     2191.800000       0.799814
     2191.900000       0.792051
     2192.000000       0.784137
     2192.100000       0.776085
     2192.200000       0.767913
     2192.300000       0.759637
     2192.400000       0.751252
     2192.500000       0.742740
     2192.600000       0.734072
     2192.700000       0.725343
     2192.800000       0.716575
     2192.900000       0.707716
     2193.000000       0.698721
     2193.100000       0.689553
     2193.200000       0.680178
     2193.300000       0.670686
     2193.400000       0.661105
     2193.500000       0.651424
     2193.600000       0.641634
     2193.700000       0.631702
     2193.800000       0.621628
     2193.900000       0.611527
     2194.000000       0.601448
     2194.100000       0.591416
     2194.200000       0.581435
     2194.300000       0.571455
     2194.400000       0.561442
     2194.500000       0.551430
     2194.600000       0.541445
     2194.700000       0.531438
     2194.800000       0.521400
     2194.900000       0.511355
     2195.000000       0.501315
     2195.100000       0.491388
     2195.200000       0.481567
     2195.300000       0.471807
     2195.400000       0.462083
     2195.500000       0.452374
     2195.600000       0.442694
     2195.700000       0.433021
     2195.800000       0.423356
     2195.900000       0.413690
     2196.000000       0.404018
     2196.100000       0.394414
     2196.200000       0.384929
     2196.300000       0.375583
     2196.400000       0.366413
     2196.500000       0.357330
     2196.600000       0.348324
     2196.700000       0.339394
     2196.800000       0.330536
     2196.900000       0.321790
     2197.000000       0.313170
     2197.100000       0.304678
     2197.200000       0.296356
     2197.300000       0.288161
     2197.400000       0.280103
     2197.500000       0.272099
     2197.600000       0.264104
     2197.700000       0.256127
     2197.800000       0.248189
     2197.900000       0.240413
     2198.000000       0.232879
     2198.100000       0.225533
     2198.200000       0.218385
     2198.300000       0.211377
     2198.400000       0.204479
     2198.500000       0.197743
     2198.600000       0.191221
     2198.700000       0.184899
     2198.800000       0.178758
     2198.900000       0.172828
     2199.000000       0.167130
     2199.100000       0.161679
     2199.200000       0.156440
     2199.300000       0.151374
     2199.400000       0.146474
     2199.500000       0.141697
     2199.600000       0.136991
     2199.700000       0.132389
     2199.800000       0.127867
     2199.900000       0.123395
     2200.000000       0.118935
     2200.100000       0.114560
     2200.200000       0.110298
     2200.300000       0.106198
     2200.400000       0.102265
     2200.500000       0.098468
     2200.600000       0.094761
     2200.700000       0.091155
     2200.800000       0.087686
     2200.900000       0.084384
     2201.000000       0.081228
     2201.100000       0.078197
     2201.200000       0.075282
     2201.300000       0.072485
     2201.400000       0.069813
     2201.500000       0.067254
     2201.600000       0.064780
     2201.700000       0.062360
     2201.800000       0.059982
     2201.900000       0.057680
     2202.000000       0.055450
     2202.100000       0.053297
     2202.200000       0.051222
     2202.300000       0.049209
     2202.400000       0.047248
     2202.500000       0.045412
     2202.600000       0.043751
     2202.700000       0.042250
     2202.800000       0.040881
     2202.900000       0.039586
     2203.000000       0.038328
     2203.100000       0.037091
     2203.200000       0.035874
     2203.300000       0.034705
     2203.400000       0.033598
     2203.500000       0.032572
     2203.600000       0.031621
     2203.700000       0.030712
     2203.800000       0.029811
     2203.900000       0.028882
     2204.000000       0.027925
     2204.100000       0.026975
     2204.200000       0.026051
     2204.300000       0.025135
     2204.400000       0.024236
     2204.500000       0.023364
     2204.600000       0.022496
     2204.700000       0.021663
     2204.800000       0.020847
     2204.900000       0.020059
     2205.000000       0.019375
     2205.100000       0.018755
     2205.200000       0.018183
     2205.300000       0.017622
     2205.400000       0.017085
     2205.500000       0.016570
     2205.600000       0.016079
     2205.700000       0.015589
     2205.800000       0.015107
     2205.900000       0.014649
     2206.000000       0.014214
     2206.100000       0.013788
     2206.200000       0.013367
     2206.300000       0.012951
     2206.400000       0.012544
     2206.500000       0.012144
     2206.600000       0.011760
     2206.700000       0.011381
     2206.800000       0.011004
     2206.900000       0.010635
     2207.000000       0.010267
     2207.100000       0.009902
     2207.200000       0.009538
     2207.300000       0.009175
     2207.400000       0.008815
     2207.500000       0.008456
     2207.600000       0.008102
     2207.700000       0.007747
     2207.800000       0.007410
     2207.900000       0.007081
     2208.000000       0.006757
     2208.100000       0.006450
     2208.200000       0.006144
     2208.300000       0.005839
     2208.400000       0.005544
     2208.500000       0.005259
     2208.600000       0.004976
     2208.700000       0.004698
     2208.800000       0.004427
     2208.900000       0.004162
     2209.000000       0.003912
     2209.100000       0.003668
     2209.200000       0.003441
     2209.300000       0.003219
     2209.400000       0.003001
     2209.500000       0.002789
     2209.600000       0.002583
     2209.700000       0.002378
     2209.800000       0.002178
     2209.900000       0.001980
     2210.000000       0.001782
     2210.100000       0.001586
     2210.200000       0.001414
     2210.300000       0.001243
     2210.400000       0.001074
     2210.500000       0.000906
     2210.600000       0.000743
     2210.700000       0.000593
     2210.800000       0.000456
     2210.900000       0.000327
     2211.000000       0.000208
     2211.100000       0.000102
     2211.200000       0.000000
