01 , goes_12_imager_02.flt
Number of data points:
2511
Wavenumber (cm-1)   Filter response
     2419.000000       0.004880
     2419.100000       0.004870
     2419.200000       0.004870
     2419.300000       0.004870
     2419.400000       0.004870
     2419.500000       0.004870
     2419.600000       0.004870
     2419.700000       0.004870
     2419.800000       0.004870
     2419.900000       0.004870
     2420.000000       0.004870
     2420.100000       0.004870
     2420.200000       0.004870
     2420.300000       0.004870
     2420.400000       0.004870
     2420.500000       0.004870
     2420.600000       0.004870
     2420.700000       0.004870
     2420.800000       0.004870
     2420.900000       0.004870
     2421.000000       0.004870
     2421.100000       0.004870
     2421.200000       0.004870
     2421.300000       0.004870
     2421.400000       0.004870
     2421.500000       0.004870
     2421.600000       0.004870
     2421.700000       0.004870
     2421.800000       0.004870
     2421.900000       0.004870
     2422.000000       0.004870
     2422.100000       0.004870
     2422.200000       0.004870
     2422.300000       0.004870
     2422.400000       0.004870
     2422.500000       0.004870
     2422.600000       0.004870
     2422.700000       0.004870
     2422.800000       0.004870
     2422.900000       0.004870
     2423.000000       0.004870
     2423.100000       0.004870
     2423.200000       0.004870
     2423.300000       0.004870
     2423.400000       0.004870
     2423.500000       0.004870
     2423.600000       0.004870
     2423.700000       0.004870
     2423.800000       0.004870
     2423.900000       0.004870
     2424.000000       0.004870
     2424.100000       0.004870
     2424.200000       0.004870
     2424.300000       0.004870
     2424.400000       0.004860
     2424.500000       0.004860
     2424.600000       0.004860
     2424.700000       0.004860
     2424.800000       0.004860
     2424.900000       0.004860
     2425.000000       0.004860
     2425.100000       0.004860
     2425.200000       0.004850
     2425.300000       0.004850
     2425.400000       0.004850
     2425.500000       0.004850
     2425.600000       0.004850
     2425.700000       0.004850
     2425.800000       0.004840
     2425.900000       0.004840
     2426.000000       0.004840
     2426.100000       0.004840
     2426.200000       0.004840
     2426.300000       0.004830
     2426.400000       0.004830
     2426.500000       0.004830
     2426.600000       0.004830
     2426.700000       0.004830
     2426.800000       0.004820
     2426.900000       0.004820
     2427.000000       0.004820
     2427.100000       0.004820
     2427.200000       0.004820
     2427.300000       0.004810
     2427.400000       0.004810
     2427.500000       0.004810
     2427.600000       0.004810
     2427.700000       0.004810
     2427.800000       0.004800
     2427.900000       0.004800
     2428.000000       0.004800
     2428.100000       0.004800
     2428.200000       0.004800
     2428.300000       0.004800
     2428.400000       0.004790
     2428.500000       0.004790
     2428.600000       0.004790
     2428.700000       0.004790
     2428.800000       0.004790
     2428.900000       0.004780
     2429.000000       0.004780
     2429.100000       0.004780
     2429.200000       0.004780
     2429.300000       0.004780
     2429.400000       0.004780
     2429.500000       0.004770
     2429.600000       0.004770
     2429.700000       0.004770
     2429.800000       0.004770
     2429.900000       0.004770
     2430.000000       0.004770
     2430.100000       0.004760
     2430.200000       0.004760
     2430.300000       0.004760
     2430.400000       0.004760
     2430.500000       0.004760
     2430.600000       0.004750
     2430.700000       0.004750
     2430.800000       0.004750
     2430.900000       0.004750
     2431.000000       0.004750
     2431.100000       0.004740
     2431.200000       0.004740
     2431.300000       0.004740
     2431.400000       0.004740
     2431.500000       0.004740
     2431.600000       0.004740
     2431.700000       0.004730
     2431.800000       0.004730
     2431.900000       0.004730
     2432.000000       0.004730
     2432.100000       0.004730
     2432.200000       0.004730
     2432.300000       0.004720
     2432.400000       0.004720
     2432.500000       0.004720
     2432.600000       0.004720
     2432.700000       0.004720
     2432.800000       0.004720
     2432.900000       0.004720
     2433.000000       0.004710
     2433.100000       0.004710
     2433.200000       0.004710
     2433.300000       0.004710
     2433.400000       0.004710
     2433.500000       0.004710
     2433.600000       0.004710
     2433.700000       0.004700
     2433.800000       0.004700
     2433.900000       0.004700
     2434.000000       0.004700
     2434.100000       0.004700
     2434.200000       0.004700
     2434.300000       0.004700
     2434.400000       0.004700
     2434.500000       0.004700
     2434.600000       0.004690
     2434.700000       0.004690
     2434.800000       0.004690
     2434.900000       0.004690
     2435.000000       0.004690
     2435.100000       0.004690
     2435.200000       0.004690
     2435.300000       0.004690
     2435.400000       0.004690
     2435.500000       0.004680
     2435.600000       0.004680
     2435.700000       0.004680
     2435.800000       0.004680
     2435.900000       0.004680
     2436.000000       0.004680
     2436.100000       0.004680
     2436.200000       0.004680
     2436.300000       0.004680
     2436.400000       0.004670
     2436.500000       0.004670
     2436.600000       0.004670
     2436.700000       0.004670
     2436.800000       0.004670
     2436.900000       0.004670
     2437.000000       0.004670
     2437.100000       0.004670
     2437.200000       0.004670
     2437.300000       0.004670
     2437.400000       0.004660
     2437.500000       0.004660
     2437.600000       0.004660
     2437.700000       0.004660
     2437.800000       0.004660
     2437.900000       0.004660
     2438.000000       0.004660
     2438.100000       0.004660
     2438.200000       0.004660
     2438.300000       0.004650
     2438.400000       0.004650
     2438.500000       0.004650
     2438.600000       0.004650
     2438.700000       0.004650
     2438.800000       0.004650
     2438.900000       0.004650
     2439.000000       0.004650
     2439.100000       0.004650
     2439.200000       0.004650
     2439.300000       0.004640
     2439.400000       0.004640
     2439.500000       0.004640
     2439.600000       0.004640
     2439.700000       0.004640
     2439.800000       0.004640
     2439.900000       0.004640
     2440.000000       0.004640
     2440.100000       0.004640
     2440.200000       0.004640
     2440.300000       0.004640
     2440.400000       0.004630
     2440.500000       0.004630
     2440.600000       0.004630
     2440.700000       0.004630
     2440.800000       0.004630
     2440.900000       0.004630
     2441.000000       0.004630
     2441.100000       0.004630
     2441.200000       0.004630
     2441.300000       0.004630
     2441.400000       0.004630
     2441.500000       0.004630
     2441.600000       0.004630
     2441.700000       0.004630
     2441.800000       0.004620
     2441.900000       0.004620
     2442.000000       0.004620
     2442.100000       0.004620
     2442.200000       0.004620
     2442.300000       0.004620
     2442.400000       0.004620
     2442.500000       0.004630
     2442.600000       0.004630
     2442.700000       0.004630
     2442.800000       0.004630
     2442.900000       0.004630
     2443.000000       0.004630
     2443.100000       0.004630
     2443.200000       0.004630
     2443.300000       0.004630
     2443.400000       0.004640
     2443.500000       0.004640
     2443.600000       0.004640
     2443.700000       0.004640
     2443.800000       0.004640
     2443.900000       0.004640
     2444.000000       0.004640
     2444.100000       0.004640
     2444.200000       0.004640
     2444.300000       0.004640
     2444.400000       0.004640
     2444.500000       0.004640
     2444.600000       0.004640
     2444.700000       0.004640
     2444.800000       0.004640
     2444.900000       0.004640
     2445.000000       0.004640
     2445.100000       0.004630
     2445.200000       0.004630
     2445.300000       0.004630
     2445.400000       0.004620
     2445.500000       0.004620
     2445.600000       0.004610
     2445.700000       0.004610
     2445.800000       0.004610
     2445.900000       0.004600
     2446.000000       0.004600
     2446.100000       0.004590
     2446.200000       0.004590
     2446.300000       0.004580
     2446.400000       0.004580
     2446.500000       0.004580
     2446.600000       0.004580
     2446.700000       0.004570
     2446.800000       0.004570
     2446.900000       0.004580
     2447.000000       0.004580
     2447.100000       0.004580
     2447.200000       0.004590
     2447.300000       0.004590
     2447.400000       0.004600
     2447.500000       0.004610
     2447.600000       0.004620
     2447.700000       0.004640
     2447.800000       0.004650
     2447.900000       0.004670
     2448.000000       0.004690
     2448.100000       0.004710
     2448.200000       0.004740
     2448.300000       0.004760
     2448.400000       0.004790
     2448.500000       0.004820
     2448.600000       0.004860
     2448.700000       0.004890
     2448.800000       0.004930
     2448.900000       0.004970
     2449.000000       0.005010
     2449.100000       0.005060
     2449.200000       0.005110
     2449.300000       0.005160
     2449.400000       0.005220
     2449.500000       0.005270
     2449.600000       0.005330
     2449.700000       0.005400
     2449.800000       0.005460
     2449.900000       0.005530
     2450.000000       0.005610
     2450.100000       0.005680
     2450.200000       0.005760
     2450.300000       0.005850
     2450.400000       0.005940
     2450.500000       0.006030
     2450.600000       0.006130
     2450.700000       0.006230
     2450.800000       0.006330
     2450.900000       0.006440
     2451.000000       0.006540
     2451.100000       0.006650
     2451.200000       0.006760
     2451.300000       0.006860
     2451.400000       0.006970
     2451.500000       0.007070
     2451.600000       0.007170
     2451.700000       0.007270
     2451.800000       0.007360
     2451.900000       0.007450
     2452.000000       0.007530
     2452.100000       0.007610
     2452.200000       0.007680
     2452.300000       0.007740
     2452.400000       0.007790
     2452.500000       0.007830
     2452.600000       0.007870
     2452.700000       0.007890
     2452.800000       0.007910
     2452.900000       0.007930
     2453.000000       0.007940
     2453.100000       0.007950
     2453.200000       0.007960
     2453.300000       0.007960
     2453.400000       0.007970
     2453.500000       0.007980
     2453.600000       0.007990
     2453.700000       0.008000
     2453.800000       0.008020
     2453.900000       0.008050
     2454.000000       0.008090
     2454.100000       0.008140
     2454.200000       0.008200
     2454.300000       0.008270
     2454.400000       0.008370
     2454.500000       0.008470
     2454.600000       0.008600
     2454.700000       0.008750
     2454.800000       0.008910
     2454.900000       0.009090
     2455.000000       0.009290
     2455.100000       0.009510
     2455.200000       0.009740
     2455.300000       0.009990
     2455.400000       0.010260
     2455.500000       0.010560
     2455.600000       0.010870
     2455.700000       0.011190
     2455.800000       0.011530
     2455.900000       0.011880
     2456.000000       0.012230
     2456.100000       0.012590
     2456.200000       0.012960
     2456.300000       0.013320
     2456.400000       0.013680
     2456.500000       0.014030
     2456.600000       0.014380
     2456.700000       0.014720
     2456.800000       0.015060
     2456.900000       0.015390
     2457.000000       0.015710
     2457.100000       0.016020
     2457.200000       0.016330
     2457.300000       0.016620
     2457.400000       0.016910
     2457.500000       0.017180
     2457.600000       0.017450
     2457.700000       0.017710
     2457.800000       0.017970
     2457.900000       0.018220
     2458.000000       0.018470
     2458.100000       0.018730
     2458.200000       0.018990
     2458.300000       0.019260
     2458.400000       0.019540
     2458.500000       0.019830
     2458.600000       0.020130
     2458.700000       0.020450
     2458.800000       0.020780
     2458.900000       0.021110
     2459.000000       0.021460
     2459.100000       0.021820
     2459.200000       0.022190
     2459.300000       0.022570
     2459.400000       0.022960
     2459.500000       0.023360
     2459.600000       0.023780
     2459.700000       0.024190
     2459.800000       0.024620
     2459.900000       0.025050
     2460.000000       0.025480
     2460.100000       0.025910
     2460.200000       0.026350
     2460.300000       0.026770
     2460.400000       0.027200
     2460.500000       0.027620
     2460.600000       0.028030
     2460.700000       0.028440
     2460.800000       0.028840
     2460.900000       0.029230
     2461.000000       0.029610
     2461.100000       0.029990
     2461.200000       0.030350
     2461.300000       0.030710
     2461.400000       0.031050
     2461.500000       0.031390
     2461.600000       0.031710
     2461.700000       0.032020
     2461.800000       0.032320
     2461.900000       0.032610
     2462.000000       0.032890
     2462.100000       0.033170
     2462.200000       0.033430
     2462.300000       0.033690
     2462.400000       0.033940
     2462.500000       0.034180
     2462.600000       0.034420
     2462.700000       0.034640
     2462.800000       0.034860
     2462.900000       0.035080
     2463.000000       0.035280
     2463.100000       0.035480
     2463.200000       0.035670
     2463.300000       0.035860
     2463.400000       0.036040
     2463.500000       0.036210
     2463.600000       0.036370
     2463.700000       0.036530
     2463.800000       0.036680
     2463.900000       0.036820
     2464.000000       0.036960
     2464.100000       0.037080
     2464.200000       0.037210
     2464.300000       0.037320
     2464.400000       0.037430
     2464.500000       0.037530
     2464.600000       0.037620
     2464.700000       0.037700
     2464.800000       0.037780
     2464.900000       0.037850
     2465.000000       0.037910
     2465.100000       0.037960
     2465.200000       0.038010
     2465.300000       0.038050
     2465.400000       0.038080
     2465.500000       0.038100
     2465.600000       0.038110
     2465.700000       0.038120
     2465.800000       0.038110
     2465.900000       0.038100
     2466.000000       0.038070
     2466.100000       0.038030
     2466.200000       0.037980
     2466.300000       0.037910
     2466.400000       0.037830
     2466.500000       0.037730
     2466.600000       0.037620
     2466.700000       0.037490
     2466.800000       0.037350
     2466.900000       0.037210
     2467.000000       0.037060
     2467.100000       0.036910
     2467.200000       0.036760
     2467.300000       0.036620
     2467.400000       0.036480
     2467.500000       0.036350
     2467.600000       0.036250
     2467.700000       0.036220
     2467.800000       0.036280
     2467.900000       0.036470
     2468.000000       0.036820
     2468.100000       0.037360
     2468.200000       0.038130
     2468.300000       0.039180
     2468.400000       0.040540
     2468.500000       0.042250
     2468.600000       0.044280
     2468.700000       0.046580
     2468.800000       0.049100
     2468.900000       0.051790
     2469.000000       0.054620
     2469.100000       0.057540
     2469.200000       0.060490
     2469.300000       0.063440
     2469.400000       0.066350
     2469.500000       0.069180
     2469.600000       0.071920
     2469.700000       0.074570
     2469.800000       0.077150
     2469.900000       0.079640
     2470.000000       0.082050
     2470.100000       0.084390
     2470.200000       0.086640
     2470.300000       0.088820
     2470.400000       0.090920
     2470.500000       0.092940
     2470.600000       0.094900
     2470.700000       0.096800
     2470.800000       0.098690
     2470.900000       0.100570
     2471.000000       0.102470
     2471.100000       0.104410
     2471.200000       0.106410
     2471.300000       0.108480
     2471.400000       0.110650
     2471.500000       0.112950
     2471.600000       0.115370
     2471.700000       0.117890
     2471.800000       0.120500
     2471.900000       0.123190
     2472.000000       0.125960
     2472.100000       0.128790
     2472.200000       0.131660
     2472.300000       0.134590
     2472.400000       0.137540
     2472.500000       0.140530
     2472.600000       0.143540
     2472.700000       0.146560
     2472.800000       0.149590
     2472.900000       0.152620
     2473.000000       0.155640
     2473.100000       0.158650
     2473.200000       0.161640
     2473.300000       0.164600
     2473.400000       0.167530
     2473.500000       0.170410
     2473.600000       0.173260
     2473.700000       0.176070
     2473.800000       0.178860
     2473.900000       0.181630
     2474.000000       0.184380
     2474.100000       0.187130
     2474.200000       0.189870
     2474.300000       0.192610
     2474.400000       0.195350
     2474.500000       0.198120
     2474.600000       0.200900
     2474.700000       0.203710
     2474.800000       0.206560
     2474.900000       0.209460
     2475.000000       0.212430
     2475.100000       0.215470
     2475.200000       0.218580
     2475.300000       0.221810
     2475.400000       0.225140
     2475.500000       0.228600
     2475.600000       0.232190
     2475.700000       0.235910
     2475.800000       0.239780
     2475.900000       0.243790
     2476.000000       0.247970
     2476.100000       0.252300
     2476.200000       0.256800
     2476.300000       0.261500
     2476.400000       0.266390
     2476.500000       0.271510
     2476.600000       0.276830
     2476.700000       0.282300
     2476.800000       0.287950
     2476.900000       0.293700
     2477.000000       0.299580
     2477.100000       0.305540
     2477.200000       0.311560
     2477.300000       0.317640
     2477.400000       0.323740
     2477.500000       0.329870
     2477.600000       0.336000
     2477.700000       0.342090
     2477.800000       0.348150
     2477.900000       0.354130
     2478.000000       0.360040
     2478.100000       0.365850
     2478.200000       0.371520
     2478.300000       0.377060
     2478.400000       0.382400
     2478.500000       0.387560
     2478.600000       0.392520
     2478.700000       0.397290
     2478.800000       0.401910
     2478.900000       0.406350
     2479.000000       0.410650
     2479.100000       0.414800
     2479.200000       0.418800
     2479.300000       0.422680
     2479.400000       0.426410
     2479.500000       0.430020
     2479.600000       0.433500
     2479.700000       0.436880
     2479.800000       0.440160
     2479.900000       0.443350
     2480.000000       0.446480
     2480.100000       0.449540
     2480.200000       0.452540
     2480.300000       0.455490
     2480.400000       0.458410
     2480.500000       0.461300
     2480.600000       0.464160
     2480.700000       0.467010
     2480.800000       0.469860
     2480.900000       0.472700
     2481.000000       0.475570
     2481.100000       0.478460
     2481.200000       0.481370
     2481.300000       0.484340
     2481.400000       0.487340
     2481.500000       0.490420
     2481.600000       0.493550
     2481.700000       0.496740
     2481.800000       0.500000
     2481.900000       0.503310
     2482.000000       0.506690
     2482.100000       0.510120
     2482.200000       0.513620
     2482.300000       0.517180
     2482.400000       0.520800
     2482.500000       0.524510
     2482.600000       0.528280
     2482.700000       0.532110
     2482.800000       0.536010
     2482.900000       0.539970
     2483.000000       0.544000
     2483.100000       0.548100
     2483.200000       0.552250
     2483.300000       0.556470
     2483.400000       0.560760
     2483.500000       0.565120
     2483.600000       0.569550
     2483.700000       0.574040
     2483.800000       0.578610
     2483.900000       0.583240
     2484.000000       0.587950
     2484.100000       0.592730
     2484.200000       0.597570
     2484.300000       0.602500
     2484.400000       0.607500
     2484.500000       0.612600
     2484.600000       0.617770
     2484.700000       0.623000
     2484.800000       0.628300
     2484.900000       0.633630
     2485.000000       0.639010
     2485.100000       0.644420
     2485.200000       0.649840
     2485.300000       0.655280
     2485.400000       0.660710
     2485.500000       0.666150
     2485.600000       0.671570
     2485.700000       0.676960
     2485.800000       0.682310
     2485.900000       0.687600
     2486.000000       0.692840
     2486.100000       0.698010
     2486.200000       0.703070
     2486.300000       0.708030
     2486.400000       0.712860
     2486.500000       0.717570
     2486.600000       0.722140
     2486.700000       0.726560
     2486.800000       0.730870
     2486.900000       0.735050
     2487.000000       0.739120
     2487.100000       0.743060
     2487.200000       0.746880
     2487.300000       0.750580
     2487.400000       0.754160
     2487.500000       0.757610
     2487.600000       0.760950
     2487.700000       0.764180
     2487.800000       0.767320
     2487.900000       0.770380
     2488.000000       0.773390
     2488.100000       0.776330
     2488.200000       0.779220
     2488.300000       0.782080
     2488.400000       0.784910
     2488.500000       0.787720
     2488.600000       0.790530
     2488.700000       0.793330
     2488.800000       0.796140
     2488.900000       0.798980
     2489.000000       0.801840
     2489.100000       0.804760
     2489.200000       0.807710
     2489.300000       0.810740
     2489.400000       0.813850
     2489.500000       0.817040
     2489.600000       0.820330
     2489.700000       0.823690
     2489.800000       0.827130
     2489.900000       0.830640
     2490.000000       0.834220
     2490.100000       0.837870
     2490.200000       0.841570
     2490.300000       0.845350
     2490.400000       0.849180
     2490.500000       0.853070
     2490.600000       0.857010
     2490.700000       0.860970
     2490.800000       0.864960
     2490.900000       0.868930
     2491.000000       0.872900
     2491.100000       0.876840
     2491.200000       0.880720
     2491.300000       0.884550
     2491.400000       0.888280
     2491.500000       0.891930
     2491.600000       0.895470
     2491.700000       0.898900
     2491.800000       0.902220
     2491.900000       0.905420
     2492.000000       0.908510
     2492.100000       0.911480
     2492.200000       0.914300
     2492.300000       0.916980
     2492.400000       0.919500
     2492.500000       0.921860
     2492.600000       0.924070
     2492.700000       0.926120
     2492.800000       0.928040
     2492.900000       0.929830
     2493.000000       0.931510
     2493.100000       0.933080
     2493.200000       0.934550
     2493.300000       0.935930
     2493.400000       0.937210
     2493.500000       0.938410
     2493.600000       0.939530
     2493.700000       0.940580
     2493.800000       0.941570
     2493.900000       0.942510
     2494.000000       0.943390
     2494.100000       0.944240
     2494.200000       0.945040
     2494.300000       0.945820
     2494.400000       0.946570
     2494.500000       0.947300
     2494.600000       0.948020
     2494.700000       0.948720
     2494.800000       0.949410
     2494.900000       0.950090
     2495.000000       0.950780
     2495.100000       0.951460
     2495.200000       0.952140
     2495.300000       0.952840
     2495.400000       0.953540
     2495.500000       0.954260
     2495.600000       0.954990
     2495.700000       0.955730
     2495.800000       0.956490
     2495.900000       0.957250
     2496.000000       0.958010
     2496.100000       0.958780
     2496.200000       0.959550
     2496.300000       0.960330
     2496.400000       0.961100
     2496.500000       0.961870
     2496.600000       0.962630
     2496.700000       0.963390
     2496.800000       0.964150
     2496.900000       0.964900
     2497.000000       0.965640
     2497.100000       0.966380
     2497.200000       0.967100
     2497.300000       0.967820
     2497.400000       0.968520
     2497.500000       0.969210
     2497.600000       0.969890
     2497.700000       0.970550
     2497.800000       0.971190
     2497.900000       0.971820
     2498.000000       0.972430
     2498.100000       0.973020
     2498.200000       0.973590
     2498.300000       0.974140
     2498.400000       0.974660
     2498.500000       0.975160
     2498.600000       0.975630
     2498.700000       0.976080
     2498.800000       0.976500
     2498.900000       0.976910
     2499.000000       0.977290
     2499.100000       0.977660
     2499.200000       0.978000
     2499.300000       0.978330
     2499.400000       0.978640
     2499.500000       0.978940
     2499.600000       0.979220
     2499.700000       0.979480
     2499.800000       0.979730
     2499.900000       0.979970
     2500.000000       0.980190
     2500.100000       0.980400
     2500.200000       0.980600
     2500.300000       0.980790
     2500.400000       0.980960
     2500.500000       0.981120
     2500.600000       0.981280
     2500.700000       0.981420
     2500.800000       0.981550
     2500.900000       0.981670
     2501.000000       0.981780
     2501.100000       0.981890
     2501.200000       0.981980
     2501.300000       0.982070
     2501.400000       0.982150
     2501.500000       0.982230
     2501.600000       0.982290
     2501.700000       0.982350
     2501.800000       0.982410
     2501.900000       0.982450
     2502.000000       0.982500
     2502.100000       0.982530
     2502.200000       0.982570
     2502.300000       0.982590
     2502.400000       0.982620
     2502.500000       0.982640
     2502.600000       0.982650
     2502.700000       0.982670
     2502.800000       0.982680
     2502.900000       0.982680
     2503.000000       0.982690
     2503.100000       0.982690
     2503.200000       0.982690
     2503.300000       0.982690
     2503.400000       0.982690
     2503.500000       0.982680
     2503.600000       0.982680
     2503.700000       0.982670
     2503.800000       0.982670
     2503.900000       0.982660
     2504.000000       0.982660
     2504.100000       0.982650
     2504.200000       0.982650
     2504.300000       0.982640
     2504.400000       0.982640
     2504.500000       0.982650
     2504.600000       0.982650
     2504.700000       0.982650
     2504.800000       0.982660
     2504.900000       0.982670
     2505.000000       0.982680
     2505.100000       0.982690
     2505.200000       0.982700
     2505.300000       0.982710
     2505.400000       0.982730
     2505.500000       0.982740
     2505.600000       0.982760
     2505.700000       0.982770
     2505.800000       0.982790
     2505.900000       0.982800
     2506.000000       0.982820
     2506.100000       0.982830
     2506.200000       0.982850
     2506.300000       0.982860
     2506.400000       0.982870
     2506.500000       0.982890
     2506.600000       0.982900
     2506.700000       0.982910
     2506.800000       0.982910
     2506.900000       0.982920
     2507.000000       0.982920
     2507.100000       0.982910
     2507.200000       0.982900
     2507.300000       0.982890
     2507.400000       0.982870
     2507.500000       0.982840
     2507.600000       0.982800
     2507.700000       0.982760
     2507.800000       0.982710
     2507.900000       0.982660
     2508.000000       0.982600
     2508.100000       0.982540
     2508.200000       0.982470
     2508.300000       0.982390
     2508.400000       0.982320
     2508.500000       0.982230
     2508.600000       0.982150
     2508.700000       0.982060
     2508.800000       0.981970
     2508.900000       0.981880
     2509.000000       0.981800
     2509.100000       0.981710
     2509.200000       0.981630
     2509.300000       0.981560
     2509.400000       0.981490
     2509.500000       0.981430
     2509.600000       0.981380
     2509.700000       0.981340
     2509.800000       0.981300
     2509.900000       0.981280
     2510.000000       0.981270
     2510.100000       0.981270
     2510.200000       0.981280
     2510.300000       0.981300
     2510.400000       0.981340
     2510.500000       0.981400
     2510.600000       0.981470
     2510.700000       0.981560
     2510.800000       0.981660
     2510.900000       0.981780
     2511.000000       0.981910
     2511.100000       0.982050
     2511.200000       0.982210
     2511.300000       0.982380
     2511.400000       0.982560
     2511.500000       0.982760
     2511.600000       0.982970
     2511.700000       0.983190
     2511.800000       0.983420
     2511.900000       0.983650
     2512.000000       0.983880
     2512.100000       0.984120
     2512.200000       0.984360
     2512.300000       0.984590
     2512.400000       0.984820
     2512.500000       0.985040
     2512.600000       0.985260
     2512.700000       0.985470
     2512.800000       0.985670
     2512.900000       0.985870
     2513.000000       0.986060
     2513.100000       0.986240
     2513.200000       0.986410
     2513.300000       0.986580
     2513.400000       0.986740
     2513.500000       0.986890
     2513.600000       0.987030
     2513.700000       0.987160
     2513.800000       0.987290
     2513.900000       0.987410
     2514.000000       0.987520
     2514.100000       0.987640
     2514.200000       0.987740
     2514.300000       0.987850
     2514.400000       0.987950
     2514.500000       0.988060
     2514.600000       0.988160
     2514.700000       0.988260
     2514.800000       0.988370
     2514.900000       0.988470
     2515.000000       0.988580
     2515.100000       0.988690
     2515.200000       0.988800
     2515.300000       0.988910
     2515.400000       0.989030
     2515.500000       0.989160
     2515.600000       0.989290
     2515.700000       0.989420
     2515.800000       0.989560
     2515.900000       0.989700
     2516.000000       0.989850
     2516.100000       0.990000
     2516.200000       0.990150
     2516.300000       0.990300
     2516.400000       0.990460
     2516.500000       0.990620
     2516.600000       0.990780
     2516.700000       0.990940
     2516.800000       0.991100
     2516.900000       0.991260
     2517.000000       0.991410
     2517.100000       0.991560
     2517.200000       0.991710
     2517.300000       0.991860
     2517.400000       0.991990
     2517.500000       0.992120
     2517.600000       0.992240
     2517.700000       0.992350
     2517.800000       0.992460
     2517.900000       0.992570
     2518.000000       0.992680
     2518.100000       0.992780
     2518.200000       0.992880
     2518.300000       0.992980
     2518.400000       0.993090
     2518.500000       0.993190
     2518.600000       0.993300
     2518.700000       0.993420
     2518.800000       0.993530
     2518.900000       0.993650
     2519.000000       0.993780
     2519.100000       0.993900
     2519.200000       0.994030
     2519.300000       0.994170
     2519.400000       0.994310
     2519.500000       0.994460
     2519.600000       0.994610
     2519.700000       0.994760
     2519.800000       0.994920
     2519.900000       0.995080
     2520.000000       0.995240
     2520.100000       0.995400
     2520.200000       0.995560
     2520.300000       0.995720
     2520.400000       0.995890
     2520.500000       0.996050
     2520.600000       0.996200
     2520.700000       0.996360
     2520.800000       0.996510
     2520.900000       0.996660
     2521.000000       0.996810
     2521.100000       0.996950
     2521.200000       0.997080
     2521.300000       0.997210
     2521.400000       0.997340
     2521.500000       0.997450
     2521.600000       0.997560
     2521.700000       0.997670
     2521.800000       0.997760
     2521.900000       0.997850
     2522.000000       0.997930
     2522.100000       0.998010
     2522.200000       0.998080
     2522.300000       0.998140
     2522.400000       0.998190
     2522.500000       0.998230
     2522.600000       0.998260
     2522.700000       0.998290
     2522.800000       0.998310
     2522.900000       0.998330
     2523.000000       0.998330
     2523.100000       0.998340
     2523.200000       0.998340
     2523.300000       0.998330
     2523.400000       0.998320
     2523.500000       0.998300
     2523.600000       0.998290
     2523.700000       0.998260
     2523.800000       0.998240
     2523.900000       0.998210
     2524.000000       0.998180
     2524.100000       0.998150
     2524.200000       0.998120
     2524.300000       0.998080
     2524.400000       0.998050
     2524.500000       0.998010
     2524.600000       0.997970
     2524.700000       0.997930
     2524.800000       0.997890
     2524.900000       0.997860
     2525.000000       0.997820
     2525.100000       0.997780
     2525.200000       0.997750
     2525.300000       0.997720
     2525.400000       0.997690
     2525.500000       0.997670
     2525.600000       0.997650
     2525.700000       0.997630
     2525.800000       0.997620
     2525.900000       0.997610
     2526.000000       0.997600
     2526.100000       0.997600
     2526.200000       0.997610
     2526.300000       0.997620
     2526.400000       0.997630
     2526.500000       0.997650
     2526.600000       0.997680
     2526.700000       0.997710
     2526.800000       0.997750
     2526.900000       0.997800
     2527.000000       0.997840
     2527.100000       0.997890
     2527.200000       0.997950
     2527.300000       0.998000
     2527.400000       0.998060
     2527.500000       0.998120
     2527.600000       0.998190
     2527.700000       0.998260
     2527.800000       0.998330
     2527.900000       0.998400
     2528.000000       0.998470
     2528.100000       0.998540
     2528.200000       0.998610
     2528.300000       0.998680
     2528.400000       0.998750
     2528.500000       0.998820
     2528.600000       0.998880
     2528.700000       0.998950
     2528.800000       0.999020
     2528.900000       0.999080
     2529.000000       0.999150
     2529.100000       0.999210
     2529.200000       0.999280
     2529.300000       0.999340
     2529.400000       0.999410
     2529.500000       0.999480
     2529.600000       0.999550
     2529.700000       0.999610
     2529.800000       0.999680
     2529.900000       0.999740
     2530.000000       0.999800
     2530.100000       0.999850
     2530.200000       0.999900
     2530.300000       0.999940
     2530.400000       0.999970
     2530.500000       0.999990
     2530.600000       1.000000
     2530.700000       1.000000
     2530.800000       0.999990
     2530.900000       0.999970
     2531.000000       0.999940
     2531.100000       0.999910
     2531.200000       0.999860
     2531.300000       0.999800
     2531.400000       0.999730
     2531.500000       0.999650
     2531.600000       0.999560
     2531.700000       0.999460
     2531.800000       0.999350
     2531.900000       0.999240
     2532.000000       0.999120
     2532.100000       0.999000
     2532.200000       0.998870
     2532.300000       0.998740
     2532.400000       0.998610
     2532.500000       0.998480
     2532.600000       0.998350
     2532.700000       0.998220
     2532.800000       0.998090
     2532.900000       0.997950
     2533.000000       0.997810
     2533.100000       0.997660
     2533.200000       0.997510
     2533.300000       0.997350
     2533.400000       0.997180
     2533.500000       0.997000
     2533.600000       0.996810
     2533.700000       0.996620
     2533.800000       0.996410
     2533.900000       0.996200
     2534.000000       0.995980
     2534.100000       0.995750
     2534.200000       0.995520
     2534.300000       0.995280
     2534.400000       0.995030
     2534.500000       0.994780
     2534.600000       0.994520
     2534.700000       0.994260
     2534.800000       0.993990
     2534.900000       0.993710
     2535.000000       0.993430
     2535.100000       0.993140
     2535.200000       0.992850
     2535.300000       0.992550
     2535.400000       0.992240
     2535.500000       0.991920
     2535.600000       0.991590
     2535.700000       0.991260
     2535.800000       0.990920
     2535.900000       0.990570
     2536.000000       0.990220
     2536.100000       0.989860
     2536.200000       0.989500
     2536.300000       0.989140
     2536.400000       0.988770
     2536.500000       0.988400
     2536.600000       0.988020
     2536.700000       0.987650
     2536.800000       0.987270
     2536.900000       0.986900
     2537.000000       0.986520
     2537.100000       0.986150
     2537.200000       0.985780
     2537.300000       0.985420
     2537.400000       0.985060
     2537.500000       0.984700
     2537.600000       0.984350
     2537.700000       0.984010
     2537.800000       0.983670
     2537.900000       0.983340
     2538.000000       0.983010
     2538.100000       0.982690
     2538.200000       0.982380
     2538.300000       0.982080
     2538.400000       0.981780
     2538.500000       0.981500
     2538.600000       0.981220
     2538.700000       0.980950
     2538.800000       0.980680
     2538.900000       0.980430
     2539.000000       0.980180
     2539.100000       0.979940
     2539.200000       0.979700
     2539.300000       0.979480
     2539.400000       0.979260
     2539.500000       0.979040
     2539.600000       0.978840
     2539.700000       0.978640
     2539.800000       0.978440
     2539.900000       0.978250
     2540.000000       0.978070
     2540.100000       0.977890
     2540.200000       0.977720
     2540.300000       0.977550
     2540.400000       0.977380
     2540.500000       0.977210
     2540.600000       0.977050
     2540.700000       0.976890
     2540.800000       0.976740
     2540.900000       0.976580
     2541.000000       0.976420
     2541.100000       0.976270
     2541.200000       0.976110
     2541.300000       0.975950
     2541.400000       0.975790
     2541.500000       0.975620
     2541.600000       0.975450
     2541.700000       0.975270
     2541.800000       0.975090
     2541.900000       0.974910
     2542.000000       0.974720
     2542.100000       0.974520
     2542.200000       0.974320
     2542.300000       0.974110
     2542.400000       0.973890
     2542.500000       0.973670
     2542.600000       0.973430
     2542.700000       0.973190
     2542.800000       0.972930
     2542.900000       0.972670
     2543.000000       0.972400
     2543.100000       0.972120
     2543.200000       0.971840
     2543.300000       0.971540
     2543.400000       0.971230
     2543.500000       0.970920
     2543.600000       0.970590
     2543.700000       0.970260
     2543.800000       0.969910
     2543.900000       0.969560
     2544.000000       0.969200
     2544.100000       0.968830
     2544.200000       0.968460
     2544.300000       0.968080
     2544.400000       0.967690
     2544.500000       0.967300
     2544.600000       0.966900
     2544.700000       0.966500
     2544.800000       0.966090
     2544.900000       0.965680
     2545.000000       0.965270
     2545.100000       0.964850
     2545.200000       0.964440
     2545.300000       0.964020
     2545.400000       0.963610
     2545.500000       0.963190
     2545.600000       0.962780
     2545.700000       0.962370
     2545.800000       0.961960
     2545.900000       0.961550
     2546.000000       0.961140
     2546.100000       0.960730
     2546.200000       0.960320
     2546.300000       0.959910
     2546.400000       0.959500
     2546.500000       0.959080
     2546.600000       0.958660
     2546.700000       0.958250
     2546.800000       0.957830
     2546.900000       0.957400
     2547.000000       0.956970
     2547.100000       0.956540
     2547.200000       0.956110
     2547.300000       0.955660
     2547.400000       0.955220
     2547.500000       0.954760
     2547.600000       0.954300
     2547.700000       0.953840
     2547.800000       0.953380
     2547.900000       0.952910
     2548.000000       0.952450
     2548.100000       0.951980
     2548.200000       0.951520
     2548.300000       0.951070
     2548.400000       0.950620
     2548.500000       0.950180
     2548.600000       0.949750
     2548.700000       0.949320
     2548.800000       0.948900
     2548.900000       0.948490
     2549.000000       0.948080
     2549.100000       0.947680
     2549.200000       0.947280
     2549.300000       0.946880
     2549.400000       0.946490
     2549.500000       0.946100
     2549.600000       0.945710
     2549.700000       0.945320
     2549.800000       0.944940
     2549.900000       0.944560
     2550.000000       0.944180
     2550.100000       0.943810
     2550.200000       0.943440
     2550.300000       0.943070
     2550.400000       0.942700
     2550.500000       0.942340
     2550.600000       0.941980
     2550.700000       0.941620
     2550.800000       0.941270
     2550.900000       0.940920
     2551.000000       0.940570
     2551.100000       0.940230
     2551.200000       0.939890
     2551.300000       0.939560
     2551.400000       0.939230
     2551.500000       0.938910
     2551.600000       0.938580
     2551.700000       0.938270
     2551.800000       0.937950
     2551.900000       0.937650
     2552.000000       0.937340
     2552.100000       0.937030
     2552.200000       0.936730
     2552.300000       0.936420
     2552.400000       0.936120
     2552.500000       0.935820
     2552.600000       0.935520
     2552.700000       0.935220
     2552.800000       0.934920
     2552.900000       0.934620
     2553.000000       0.934320
     2553.100000       0.934020
     2553.200000       0.933720
     2553.300000       0.933430
     2553.400000       0.933130
     2553.500000       0.932840
     2553.600000       0.932540
     2553.700000       0.932250
     2553.800000       0.931960
     2553.900000       0.931670
     2554.000000       0.931380
     2554.100000       0.931090
     2554.200000       0.930810
     2554.300000       0.930520
     2554.400000       0.930240
     2554.500000       0.929950
     2554.600000       0.929670
     2554.700000       0.929390
     2554.800000       0.929110
     2554.900000       0.928830
     2555.000000       0.928550
     2555.100000       0.928270
     2555.200000       0.927990
     2555.300000       0.927720
     2555.400000       0.927440
     2555.500000       0.927170
     2555.600000       0.926890
     2555.700000       0.926620
     2555.800000       0.926350
     2555.900000       0.926080
     2556.000000       0.925820
     2556.100000       0.925560
     2556.200000       0.925300
     2556.300000       0.925040
     2556.400000       0.924790
     2556.500000       0.924540
     2556.600000       0.924300
     2556.700000       0.924060
     2556.800000       0.923830
     2556.900000       0.923610
     2557.000000       0.923390
     2557.100000       0.923170
     2557.200000       0.922970
     2557.300000       0.922770
     2557.400000       0.922570
     2557.500000       0.922390
     2557.600000       0.922210
     2557.700000       0.922040
     2557.800000       0.921880
     2557.900000       0.921740
     2558.000000       0.921590
     2558.100000       0.921460
     2558.200000       0.921350
     2558.300000       0.921240
     2558.400000       0.921140
     2558.500000       0.921060
     2558.600000       0.920990
     2558.700000       0.920930
     2558.800000       0.920880
     2558.900000       0.920840
     2559.000000       0.920810
     2559.100000       0.920790
     2559.200000       0.920780
     2559.300000       0.920770
     2559.400000       0.920770
     2559.500000       0.920780
     2559.600000       0.920790
     2559.700000       0.920810
     2559.800000       0.920820
     2559.900000       0.920840
     2560.000000       0.920860
     2560.100000       0.920880
     2560.200000       0.920900
     2560.300000       0.920910
     2560.400000       0.920920
     2560.500000       0.920920
     2560.600000       0.920910
     2560.700000       0.920900
     2560.800000       0.920880
     2560.900000       0.920850
     2561.000000       0.920820
     2561.100000       0.920780
     2561.200000       0.920740
     2561.300000       0.920680
     2561.400000       0.920630
     2561.500000       0.920560
     2561.600000       0.920490
     2561.700000       0.920410
     2561.800000       0.920320
     2561.900000       0.920240
     2562.000000       0.920140
     2562.100000       0.920050
     2562.200000       0.919950
     2562.300000       0.919850
     2562.400000       0.919750
     2562.500000       0.919650
     2562.600000       0.919550
     2562.700000       0.919440
     2562.800000       0.919340
     2562.900000       0.919240
     2563.000000       0.919140
     2563.100000       0.919050
     2563.200000       0.918950
     2563.300000       0.918860
     2563.400000       0.918780
     2563.500000       0.918700
     2563.600000       0.918620
     2563.700000       0.918550
     2563.800000       0.918480
     2563.900000       0.918420
     2564.000000       0.918360
     2564.100000       0.918310
     2564.200000       0.918260
     2564.300000       0.918210
     2564.400000       0.918170
     2564.500000       0.918130
     2564.600000       0.918090
     2564.700000       0.918060
     2564.800000       0.918030
     2564.900000       0.918000
     2565.000000       0.917980
     2565.100000       0.917960
     2565.200000       0.917940
     2565.300000       0.917920
     2565.400000       0.917900
     2565.500000       0.917890
     2565.600000       0.917870
     2565.700000       0.917860
     2565.800000       0.917850
     2565.900000       0.917850
     2566.000000       0.917840
     2566.100000       0.917840
     2566.200000       0.917840
     2566.300000       0.917840
     2566.400000       0.917850
     2566.500000       0.917860
     2566.600000       0.917870
     2566.700000       0.917890
     2566.800000       0.917910
     2566.900000       0.917930
     2567.000000       0.917960
     2567.100000       0.917990
     2567.200000       0.918030
     2567.300000       0.918070
     2567.400000       0.918120
     2567.500000       0.918170
     2567.600000       0.918220
     2567.700000       0.918290
     2567.800000       0.918350
     2567.900000       0.918420
     2568.000000       0.918490
     2568.100000       0.918570
     2568.200000       0.918650
     2568.300000       0.918730
     2568.400000       0.918820
     2568.500000       0.918910
     2568.600000       0.919000
     2568.700000       0.919090
     2568.800000       0.919190
     2568.900000       0.919290
     2569.000000       0.919380
     2569.100000       0.919480
     2569.200000       0.919580
     2569.300000       0.919680
     2569.400000       0.919780
     2569.500000       0.919880
     2569.600000       0.919980
     2569.700000       0.920070
     2569.800000       0.920170
     2569.900000       0.920260
     2570.000000       0.920350
     2570.100000       0.920440
     2570.200000       0.920530
     2570.300000       0.920610
     2570.400000       0.920690
     2570.500000       0.920770
     2570.600000       0.920850
     2570.700000       0.920920
     2570.800000       0.920990
     2570.900000       0.921050
     2571.000000       0.921120
     2571.100000       0.921170
     2571.200000       0.921230
     2571.300000       0.921280
     2571.400000       0.921330
     2571.500000       0.921370
     2571.600000       0.921410
     2571.700000       0.921440
     2571.800000       0.921470
     2571.900000       0.921490
     2572.000000       0.921510
     2572.100000       0.921530
     2572.200000       0.921530
     2572.300000       0.921530
     2572.400000       0.921530
     2572.500000       0.921510
     2572.600000       0.921490
     2572.700000       0.921470
     2572.800000       0.921430
     2572.900000       0.921390
     2573.000000       0.921340
     2573.100000       0.921290
     2573.200000       0.921220
     2573.300000       0.921150
     2573.400000       0.921080
     2573.500000       0.920990
     2573.600000       0.920900
     2573.700000       0.920800
     2573.800000       0.920690
     2573.900000       0.920570
     2574.000000       0.920450
     2574.100000       0.920320
     2574.200000       0.920180
     2574.300000       0.920030
     2574.400000       0.919880
     2574.500000       0.919710
     2574.600000       0.919540
     2574.700000       0.919350
     2574.800000       0.919160
     2574.900000       0.918970
     2575.000000       0.918760
     2575.100000       0.918550
     2575.200000       0.918330
     2575.300000       0.918100
     2575.400000       0.917860
     2575.500000       0.917620
     2575.600000       0.917370
     2575.700000       0.917110
     2575.800000       0.916850
     2575.900000       0.916580
     2576.000000       0.916300
     2576.100000       0.916020
     2576.200000       0.915730
     2576.300000       0.915440
     2576.400000       0.915140
     2576.500000       0.914830
     2576.600000       0.914530
     2576.700000       0.914220
     2576.800000       0.913900
     2576.900000       0.913580
     2577.000000       0.913260
     2577.100000       0.912940
     2577.200000       0.912610
     2577.300000       0.912280
     2577.400000       0.911960
     2577.500000       0.911620
     2577.600000       0.911290
     2577.700000       0.910960
     2577.800000       0.910620
     2577.900000       0.910270
     2578.000000       0.909930
     2578.100000       0.909570
     2578.200000       0.909210
     2578.300000       0.908840
     2578.400000       0.908470
     2578.500000       0.908080
     2578.600000       0.907680
     2578.700000       0.907270
     2578.800000       0.906850
     2578.900000       0.906420
     2579.000000       0.905980
     2579.100000       0.905520
     2579.200000       0.905050
     2579.300000       0.904560
     2579.400000       0.904060
     2579.500000       0.903540
     2579.600000       0.903000
     2579.700000       0.902440
     2579.800000       0.901860
     2579.900000       0.901250
     2580.000000       0.900610
     2580.100000       0.899930
     2580.200000       0.899230
     2580.300000       0.898480
     2580.400000       0.897690
     2580.500000       0.896850
     2580.600000       0.895970
     2580.700000       0.895050
     2580.800000       0.894100
     2580.900000       0.893120
     2581.000000       0.892120
     2581.100000       0.891100
     2581.200000       0.890070
     2581.300000       0.889030
     2581.400000       0.887990
     2581.500000       0.886950
     2581.600000       0.885910
     2581.700000       0.884880
     2581.800000       0.883860
     2581.900000       0.882870
     2582.000000       0.881890
     2582.100000       0.880940
     2582.200000       0.880020
     2582.300000       0.879140
     2582.400000       0.878310
     2582.500000       0.877520
     2582.600000       0.876770
     2582.700000       0.876070
     2582.800000       0.875400
     2582.900000       0.874750
     2583.000000       0.874130
     2583.100000       0.873520
     2583.200000       0.872920
     2583.300000       0.872330
     2583.400000       0.871740
     2583.500000       0.871140
     2583.600000       0.870540
     2583.700000       0.869930
     2583.800000       0.869310
     2583.900000       0.868690
     2584.000000       0.868050
     2584.100000       0.867400
     2584.200000       0.866740
     2584.300000       0.866070
     2584.400000       0.865380
     2584.500000       0.864670
     2584.600000       0.863950
     2584.700000       0.863220
     2584.800000       0.862470
     2584.900000       0.861730
     2585.000000       0.860980
     2585.100000       0.860230
     2585.200000       0.859480
     2585.300000       0.858740
     2585.400000       0.858020
     2585.500000       0.857300
     2585.600000       0.856600
     2585.700000       0.855920
     2585.800000       0.855240
     2585.900000       0.854590
     2586.000000       0.853940
     2586.100000       0.853310
     2586.200000       0.852700
     2586.300000       0.852100
     2586.400000       0.851520
     2586.500000       0.850950
     2586.600000       0.850410
     2586.700000       0.849870
     2586.800000       0.849360
     2586.900000       0.848850
     2587.000000       0.848350
     2587.100000       0.847870
     2587.200000       0.847390
     2587.300000       0.846930
     2587.400000       0.846470
     2587.500000       0.846020
     2587.600000       0.845570
     2587.700000       0.845140
     2587.800000       0.844700
     2587.900000       0.844280
     2588.000000       0.843850
     2588.100000       0.843430
     2588.200000       0.843020
     2588.300000       0.842610
     2588.400000       0.842200
     2588.500000       0.841790
     2588.600000       0.841390
     2588.700000       0.840990
     2588.800000       0.840590
     2588.900000       0.840190
     2589.000000       0.839790
     2589.100000       0.839400
     2589.200000       0.839000
     2589.300000       0.838610
     2589.400000       0.838220
     2589.500000       0.837830
     2589.600000       0.837430
     2589.700000       0.837050
     2589.800000       0.836660
     2589.900000       0.836270
     2590.000000       0.835890
     2590.100000       0.835510
     2590.200000       0.835140
     2590.300000       0.834780
     2590.400000       0.834420
     2590.500000       0.834060
     2590.600000       0.833720
     2590.700000       0.833380
     2590.800000       0.833050
     2590.900000       0.832730
     2591.000000       0.832410
     2591.100000       0.832110
     2591.200000       0.831810
     2591.300000       0.831520
     2591.400000       0.831240
     2591.500000       0.830970
     2591.600000       0.830710
     2591.700000       0.830460
     2591.800000       0.830220
     2591.900000       0.829990
     2592.000000       0.829770
     2592.100000       0.829550
     2592.200000       0.829350
     2592.300000       0.829150
     2592.400000       0.828960
     2592.500000       0.828770
     2592.600000       0.828600
     2592.700000       0.828430
     2592.800000       0.828260
     2592.900000       0.828100
     2593.000000       0.827940
     2593.100000       0.827780
     2593.200000       0.827630
     2593.300000       0.827470
     2593.400000       0.827320
     2593.500000       0.827160
     2593.600000       0.826990
     2593.700000       0.826830
     2593.800000       0.826660
     2593.900000       0.826490
     2594.000000       0.826320
     2594.100000       0.826140
     2594.200000       0.825960
     2594.300000       0.825770
     2594.400000       0.825580
     2594.500000       0.825380
     2594.600000       0.825170
     2594.700000       0.824970
     2594.800000       0.824750
     2594.900000       0.824530
     2595.000000       0.824300
     2595.100000       0.824070
     2595.200000       0.823840
     2595.300000       0.823600
     2595.400000       0.823350
     2595.500000       0.823110
     2595.600000       0.822850
     2595.700000       0.822590
     2595.800000       0.822330
     2595.900000       0.822060
     2596.000000       0.821780
     2596.100000       0.821500
     2596.200000       0.821220
     2596.300000       0.820920
     2596.400000       0.820620
     2596.500000       0.820320
     2596.600000       0.820000
     2596.700000       0.819680
     2596.800000       0.819350
     2596.900000       0.819020
     2597.000000       0.818690
     2597.100000       0.818350
     2597.200000       0.818010
     2597.300000       0.817670
     2597.400000       0.817340
     2597.500000       0.817000
     2597.600000       0.816660
     2597.700000       0.816320
     2597.800000       0.815990
     2597.900000       0.815670
     2598.000000       0.815350
     2598.100000       0.815040
     2598.200000       0.814740
     2598.300000       0.814460
     2598.400000       0.814190
     2598.500000       0.813930
     2598.600000       0.813690
     2598.700000       0.813460
     2598.800000       0.813250
     2598.900000       0.813050
     2599.000000       0.812870
     2599.100000       0.812700
     2599.200000       0.812540
     2599.300000       0.812400
     2599.400000       0.812270
     2599.500000       0.812160
     2599.600000       0.812060
     2599.700000       0.811970
     2599.800000       0.811900
     2599.900000       0.811840
     2600.000000       0.811790
     2600.100000       0.811760
     2600.200000       0.811740
     2600.300000       0.811740
     2600.400000       0.811740
     2600.500000       0.811770
     2600.600000       0.811800
     2600.700000       0.811840
     2600.800000       0.811890
     2600.900000       0.811930
     2601.000000       0.811980
     2601.100000       0.812020
     2601.200000       0.812050
     2601.300000       0.812060
     2601.400000       0.812060
     2601.500000       0.812040
     2601.600000       0.812000
     2601.700000       0.811940
     2601.800000       0.811870
     2601.900000       0.811780
     2602.000000       0.811690
     2602.100000       0.811580
     2602.200000       0.811470
     2602.300000       0.811360
     2602.400000       0.811240
     2602.500000       0.811130
     2602.600000       0.811010
     2602.700000       0.810900
     2602.800000       0.810790
     2602.900000       0.810680
     2603.000000       0.810570
     2603.100000       0.810480
     2603.200000       0.810390
     2603.300000       0.810300
     2603.400000       0.810230
     2603.500000       0.810170
     2603.600000       0.810110
     2603.700000       0.810080
     2603.800000       0.810060
     2603.900000       0.810050
     2604.000000       0.810070
     2604.100000       0.810120
     2604.200000       0.810190
     2604.300000       0.810280
     2604.400000       0.810420
     2604.500000       0.810580
     2604.600000       0.810790
     2604.700000       0.811020
     2604.800000       0.811280
     2604.900000       0.811560
     2605.000000       0.811870
     2605.100000       0.812190
     2605.200000       0.812520
     2605.300000       0.812870
     2605.400000       0.813230
     2605.500000       0.813600
     2605.600000       0.813970
     2605.700000       0.814340
     2605.800000       0.814710
     2605.900000       0.815080
     2606.000000       0.815440
     2606.100000       0.815790
     2606.200000       0.816130
     2606.300000       0.816450
     2606.400000       0.816750
     2606.500000       0.817030
     2606.600000       0.817290
     2606.700000       0.817540
     2606.800000       0.817770
     2606.900000       0.818000
     2607.000000       0.818220
     2607.100000       0.818450
     2607.200000       0.818680
     2607.300000       0.818920
     2607.400000       0.819170
     2607.500000       0.819450
     2607.600000       0.819740
     2607.700000       0.820050
     2607.800000       0.820380
     2607.900000       0.820730
     2608.000000       0.821100
     2608.100000       0.821480
     2608.200000       0.821890
     2608.300000       0.822310
     2608.400000       0.822760
     2608.500000       0.823230
     2608.600000       0.823720
     2608.700000       0.824220
     2608.800000       0.824720
     2608.900000       0.825220
     2609.000000       0.825710
     2609.100000       0.826190
     2609.200000       0.826640
     2609.300000       0.827070
     2609.400000       0.827460
     2609.500000       0.827810
     2609.600000       0.828110
     2609.700000       0.828390
     2609.800000       0.828640
     2609.900000       0.828870
     2610.000000       0.829080
     2610.100000       0.829280
     2610.200000       0.829470
     2610.300000       0.829670
     2610.400000       0.829870
     2610.500000       0.830080
     2610.600000       0.830300
     2610.700000       0.830540
     2610.800000       0.830790
     2610.900000       0.831050
     2611.000000       0.831320
     2611.100000       0.831610
     2611.200000       0.831910
     2611.300000       0.832230
     2611.400000       0.832570
     2611.500000       0.832920
     2611.600000       0.833290
     2611.700000       0.833680
     2611.800000       0.834070
     2611.900000       0.834470
     2612.000000       0.834870
     2612.100000       0.835260
     2612.200000       0.835660
     2612.300000       0.836040
     2612.400000       0.836410
     2612.500000       0.836760
     2612.600000       0.837100
     2612.700000       0.837420
     2612.800000       0.837720
     2612.900000       0.838010
     2613.000000       0.838280
     2613.100000       0.838540
     2613.200000       0.838770
     2613.300000       0.839000
     2613.400000       0.839200
     2613.500000       0.839380
     2613.600000       0.839550
     2613.700000       0.839700
     2613.800000       0.839830
     2613.900000       0.839950
     2614.000000       0.840060
     2614.100000       0.840150
     2614.200000       0.840240
     2614.300000       0.840310
     2614.400000       0.840360
     2614.500000       0.840410
     2614.600000       0.840450
     2614.700000       0.840480
     2614.800000       0.840500
     2614.900000       0.840510
     2615.000000       0.840510
     2615.100000       0.840500
     2615.200000       0.840490
     2615.300000       0.840460
     2615.400000       0.840430
     2615.500000       0.840400
     2615.600000       0.840350
     2615.700000       0.840300
     2615.800000       0.840240
     2615.900000       0.840170
     2616.000000       0.840100
     2616.100000       0.840020
     2616.200000       0.839930
     2616.300000       0.839840
     2616.400000       0.839730
     2616.500000       0.839630
     2616.600000       0.839510
     2616.700000       0.839390
     2616.800000       0.839260
     2616.900000       0.839130
     2617.000000       0.839000
     2617.100000       0.838860
     2617.200000       0.838710
     2617.300000       0.838570
     2617.400000       0.838420
     2617.500000       0.838270
     2617.600000       0.838110
     2617.700000       0.837960
     2617.800000       0.837810
     2617.900000       0.837650
     2618.000000       0.837500
     2618.100000       0.837350
     2618.200000       0.837200
     2618.300000       0.837060
     2618.400000       0.836920
     2618.500000       0.836780
     2618.600000       0.836650
     2618.700000       0.836520
     2618.800000       0.836400
     2618.900000       0.836280
     2619.000000       0.836160
     2619.100000       0.836050
     2619.200000       0.835940
     2619.300000       0.835830
     2619.400000       0.835730
     2619.500000       0.835630
     2619.600000       0.835530
     2619.700000       0.835440
     2619.800000       0.835350
     2619.900000       0.835260
     2620.000000       0.835170
     2620.100000       0.835080
     2620.200000       0.835000
     2620.300000       0.834920
     2620.400000       0.834840
     2620.500000       0.834770
     2620.600000       0.834700
     2620.700000       0.834630
     2620.800000       0.834560
     2620.900000       0.834490
     2621.000000       0.834420
     2621.100000       0.834350
     2621.200000       0.834290
     2621.300000       0.834220
     2621.400000       0.834150
     2621.500000       0.834090
     2621.600000       0.834020
     2621.700000       0.833950
     2621.800000       0.833880
     2621.900000       0.833810
     2622.000000       0.833730
     2622.100000       0.833660
     2622.200000       0.833580
     2622.300000       0.833490
     2622.400000       0.833410
     2622.500000       0.833320
     2622.600000       0.833220
     2622.700000       0.833120
     2622.800000       0.833010
     2622.900000       0.832900
     2623.000000       0.832790
     2623.100000       0.832670
     2623.200000       0.832550
     2623.300000       0.832430
     2623.400000       0.832300
     2623.500000       0.832160
     2623.600000       0.832020
     2623.700000       0.831880
     2623.800000       0.831740
     2623.900000       0.831590
     2624.000000       0.831440
     2624.100000       0.831300
     2624.200000       0.831150
     2624.300000       0.831000
     2624.400000       0.830850
     2624.500000       0.830700
     2624.600000       0.830550
     2624.700000       0.830410
     2624.800000       0.830260
     2624.900000       0.830110
     2625.000000       0.829970
     2625.100000       0.829820
     2625.200000       0.829670
     2625.300000       0.829510
     2625.400000       0.829360
     2625.500000       0.829200
     2625.600000       0.829040
     2625.700000       0.828880
     2625.800000       0.828710
     2625.900000       0.828550
     2626.000000       0.828380
     2626.100000       0.828200
     2626.200000       0.828030
     2626.300000       0.827850
     2626.400000       0.827670
     2626.500000       0.827480
     2626.600000       0.827300
     2626.700000       0.827110
     2626.800000       0.826920
     2626.900000       0.826740
     2627.000000       0.826550
     2627.100000       0.826370
     2627.200000       0.826190
     2627.300000       0.826010
     2627.400000       0.825840
     2627.500000       0.825680
     2627.600000       0.825520
     2627.700000       0.825360
     2627.800000       0.825210
     2627.900000       0.825060
     2628.000000       0.824920
     2628.100000       0.824780
     2628.200000       0.824650
     2628.300000       0.824510
     2628.400000       0.824380
     2628.500000       0.824260
     2628.600000       0.824130
     2628.700000       0.824010
     2628.800000       0.823890
     2628.900000       0.823770
     2629.000000       0.823650
     2629.100000       0.823540
     2629.200000       0.823430
     2629.300000       0.823320
     2629.400000       0.823210
     2629.500000       0.823110
     2629.600000       0.823010
     2629.700000       0.822910
     2629.800000       0.822810
     2629.900000       0.822720
     2630.000000       0.822620
     2630.100000       0.822540
     2630.200000       0.822450
     2630.300000       0.822360
     2630.400000       0.822280
     2630.500000       0.822200
     2630.600000       0.822120
     2630.700000       0.822050
     2630.800000       0.821980
     2630.900000       0.821900
     2631.000000       0.821830
     2631.100000       0.821760
     2631.200000       0.821700
     2631.300000       0.821630
     2631.400000       0.821560
     2631.500000       0.821490
     2631.600000       0.821430
     2631.700000       0.821360
     2631.800000       0.821300
     2631.900000       0.821230
     2632.000000       0.821160
     2632.100000       0.821100
     2632.200000       0.821030
     2632.300000       0.820960
     2632.400000       0.820890
     2632.500000       0.820820
     2632.600000       0.820750
     2632.700000       0.820670
     2632.800000       0.820600
     2632.900000       0.820530
     2633.000000       0.820460
     2633.100000       0.820380
     2633.200000       0.820310
     2633.300000       0.820240
     2633.400000       0.820170
     2633.500000       0.820100
     2633.600000       0.820030
     2633.700000       0.819960
     2633.800000       0.819900
     2633.900000       0.819840
     2634.000000       0.819770
     2634.100000       0.819710
     2634.200000       0.819660
     2634.300000       0.819600
     2634.400000       0.819550
     2634.500000       0.819500
     2634.600000       0.819450
     2634.700000       0.819400
     2634.800000       0.819350
     2634.900000       0.819310
     2635.000000       0.819270
     2635.100000       0.819230
     2635.200000       0.819200
     2635.300000       0.819160
     2635.400000       0.819130
     2635.500000       0.819100
     2635.600000       0.819070
     2635.700000       0.819040
     2635.800000       0.819010
     2635.900000       0.818980
     2636.000000       0.818940
     2636.100000       0.818900
     2636.200000       0.818850
     2636.300000       0.818800
     2636.400000       0.818730
     2636.500000       0.818650
     2636.600000       0.818560
     2636.700000       0.818460
     2636.800000       0.818350
     2636.900000       0.818220
     2637.000000       0.818070
     2637.100000       0.817910
     2637.200000       0.817730
     2637.300000       0.817530
     2637.400000       0.817300
     2637.500000       0.817060
     2637.600000       0.816790
     2637.700000       0.816500
     2637.800000       0.816200
     2637.900000       0.815870
     2638.000000       0.815540
     2638.100000       0.815180
     2638.200000       0.814820
     2638.300000       0.814440
     2638.400000       0.814050
     2638.500000       0.813640
     2638.600000       0.813230
     2638.700000       0.812810
     2638.800000       0.812380
     2638.900000       0.811940
     2639.000000       0.811490
     2639.100000       0.811020
     2639.200000       0.810550
     2639.300000       0.810070
     2639.400000       0.809570
     2639.500000       0.809060
     2639.600000       0.808550
     2639.700000       0.808020
     2639.800000       0.807480
     2639.900000       0.806930
     2640.000000       0.806360
     2640.100000       0.805790
     2640.200000       0.805200
     2640.300000       0.804610
     2640.400000       0.804000
     2640.500000       0.803380
     2640.600000       0.802740
     2640.700000       0.802090
     2640.800000       0.801430
     2640.900000       0.800760
     2641.000000       0.800070
     2641.100000       0.799360
     2641.200000       0.798640
     2641.300000       0.797890
     2641.400000       0.797130
     2641.500000       0.796350
     2641.600000       0.795550
     2641.700000       0.794720
     2641.800000       0.793880
     2641.900000       0.793020
     2642.000000       0.792130
     2642.100000       0.791230
     2642.200000       0.790300
     2642.300000       0.789360
     2642.400000       0.788390
     2642.500000       0.787390
     2642.600000       0.786370
     2642.700000       0.785340
     2642.800000       0.784280
     2642.900000       0.783200
     2643.000000       0.782100
     2643.100000       0.780980
     2643.200000       0.779840
     2643.300000       0.778680
     2643.400000       0.777510
     2643.500000       0.776310
     2643.600000       0.775090
     2643.700000       0.773850
     2643.800000       0.772590
     2643.900000       0.771310
     2644.000000       0.770010
     2644.100000       0.768690
     2644.200000       0.767340
     2644.300000       0.765970
     2644.400000       0.764580
     2644.500000       0.763160
     2644.600000       0.761710
     2644.700000       0.760230
     2644.800000       0.758740
     2644.900000       0.757220
     2645.000000       0.755680
     2645.100000       0.754130
     2645.200000       0.752560
     2645.300000       0.750960
     2645.400000       0.749360
     2645.500000       0.747730
     2645.600000       0.746090
     2645.700000       0.744450
     2645.800000       0.742790
     2645.900000       0.741140
     2646.000000       0.739490
     2646.100000       0.737840
     2646.200000       0.736210
     2646.300000       0.734590
     2646.400000       0.733000
     2646.500000       0.731420
     2646.600000       0.729870
     2646.700000       0.728350
     2646.800000       0.726860
     2646.900000       0.725400
     2647.000000       0.723970
     2647.100000       0.722590
     2647.200000       0.721250
     2647.300000       0.719950
     2647.400000       0.718700
     2647.500000       0.717510
     2647.600000       0.716360
     2647.700000       0.715260
     2647.800000       0.714180
     2647.900000       0.713140
     2648.000000       0.712110
     2648.100000       0.711090
     2648.200000       0.710070
     2648.300000       0.709050
     2648.400000       0.708030
     2648.500000       0.706980
     2648.600000       0.705910
     2648.700000       0.704810
     2648.800000       0.703670
     2648.900000       0.702500
     2649.000000       0.701280
     2649.100000       0.700010
     2649.200000       0.698680
     2649.300000       0.697280
     2649.400000       0.695810
     2649.500000       0.694250
     2649.600000       0.692590
     2649.700000       0.690840
     2649.800000       0.688970
     2649.900000       0.686990
     2650.000000       0.684870
     2650.100000       0.682600
     2650.200000       0.680180
     2650.300000       0.677580
     2650.400000       0.674790
     2650.500000       0.671790
     2650.600000       0.668570
     2650.700000       0.665180
     2650.800000       0.661610
     2650.900000       0.657870
     2651.000000       0.653970
     2651.100000       0.649920
     2651.200000       0.645740
     2651.300000       0.641410
     2651.400000       0.636960
     2651.500000       0.632370
     2651.600000       0.627660
     2651.700000       0.622890
     2651.800000       0.618050
     2651.900000       0.613190
     2652.000000       0.608320
     2652.100000       0.603470
     2652.200000       0.598680
     2652.300000       0.593950
     2652.400000       0.589340
     2652.500000       0.584840
     2652.600000       0.580490
     2652.700000       0.576300
     2652.800000       0.572260
     2652.900000       0.568400
     2653.000000       0.564730
     2653.100000       0.561260
     2653.200000       0.558010
     2653.300000       0.555000
     2653.400000       0.552260
     2653.500000       0.549800
     2653.600000       0.547610
     2653.700000       0.545660
     2653.800000       0.543900
     2653.900000       0.542330
     2654.000000       0.540910
     2654.100000       0.539630
     2654.200000       0.538450
     2654.300000       0.537350
     2654.400000       0.536330
     2654.500000       0.535350
     2654.600000       0.534400
     2654.700000       0.533460
     2654.800000       0.532510
     2654.900000       0.531530
     2655.000000       0.530520
     2655.100000       0.529440
     2655.200000       0.528290
     2655.300000       0.527030
     2655.400000       0.525660
     2655.500000       0.524140
     2655.600000       0.522460
     2655.700000       0.520610
     2655.800000       0.518550
     2655.900000       0.516280
     2656.000000       0.513740
     2656.100000       0.510940
     2656.200000       0.507830
     2656.300000       0.504380
     2656.400000       0.500550
     2656.500000       0.496310
     2656.600000       0.491640
     2656.700000       0.486580
     2656.800000       0.481080
     2656.900000       0.475190
     2657.000000       0.468860
     2657.100000       0.462100
     2657.200000       0.454900
     2657.300000       0.447220
     2657.400000       0.439070
     2657.500000       0.430380
     2657.600000       0.421220
     2657.700000       0.411710
     2657.800000       0.401860
     2657.900000       0.391790
     2658.000000       0.381530
     2658.100000       0.371170
     2658.200000       0.360800
     2658.300000       0.350430
     2658.400000       0.340180
     2658.500000       0.330060
     2658.600000       0.320140
     2658.700000       0.310460
     2658.800000       0.301010
     2658.900000       0.291860
     2659.000000       0.283010
     2659.100000       0.274500
     2659.200000       0.266410
     2659.300000       0.258740
     2659.400000       0.251570
     2659.500000       0.244910
     2659.600000       0.238760
     2659.700000       0.233090
     2659.800000       0.227830
     2659.900000       0.222980
     2660.000000       0.218480
     2660.100000       0.214310
     2660.200000       0.210470
     2660.300000       0.206900
     2660.400000       0.203610
     2660.500000       0.200570
     2660.600000       0.197760
     2660.700000       0.195170
     2660.800000       0.192770
     2660.900000       0.190550
     2661.000000       0.188480
     2661.100000       0.186560
     2661.200000       0.184770
     2661.300000       0.183100
     2661.400000       0.181540
     2661.500000       0.180080
     2661.600000       0.178700
     2661.700000       0.177380
     2661.800000       0.176100
     2661.900000       0.174850
     2662.000000       0.173600
     2662.100000       0.172340
     2662.200000       0.171040
     2662.300000       0.169690
     2662.400000       0.168270
     2662.500000       0.166760
     2662.600000       0.165150
     2662.700000       0.163460
     2662.800000       0.161680
     2662.900000       0.159820
     2663.000000       0.157890
     2663.100000       0.155870
     2663.200000       0.153790
     2663.300000       0.151620
     2663.400000       0.149380
     2663.500000       0.147050
     2663.600000       0.144660
     2663.700000       0.142220
     2663.800000       0.139720
     2663.900000       0.137190
     2664.000000       0.134630
     2664.100000       0.132060
     2664.200000       0.129480
     2664.300000       0.126910
     2664.400000       0.124350
     2664.500000       0.121810
     2664.600000       0.119290
     2664.700000       0.116820
     2664.800000       0.114370
     2664.900000       0.111980
     2665.000000       0.109630
     2665.100000       0.107340
     2665.200000       0.105110
     2665.300000       0.102950
     2665.400000       0.100870
     2665.500000       0.098870
     2665.600000       0.096950
     2665.700000       0.095120
     2665.800000       0.093350
     2665.900000       0.091660
     2666.000000       0.090020
     2666.100000       0.088450
     2666.200000       0.086940
     2666.300000       0.085480
     2666.400000       0.084080
     2666.500000       0.082720
     2666.600000       0.081420
     2666.700000       0.080170
     2666.800000       0.078960
     2666.900000       0.077790
     2667.000000       0.076660
     2667.100000       0.075560
     2667.200000       0.074500
     2667.300000       0.073460
     2667.400000       0.072460
     2667.500000       0.071480
     2667.600000       0.070540
     2667.700000       0.069620
     2667.800000       0.068730
     2667.900000       0.067870
     2668.000000       0.063210
     2668.100000       0.061030
     2668.200000       0.057140
     2668.300000       0.052360
     2668.400000       0.049870
     2668.500000       0.045230
     2668.600000       0.041740
     2668.700000       0.038640
     2668.800000       0.035210
     2668.900000       0.031560
     2669.000000       0.028340
     2669.100000       0.024210
     2669.200000       0.021370
     2669.300000       0.018450
     2669.400000       0.015230
     2669.500000       0.012770
     2669.600000       0.010550
     2669.700000       0.008730
     2669.800000       0.006120
     2669.900000       0.000910
     2670.000000       0.000370
