6,   channel 6 SRF from file SRF_SIRS-A_Ch06.asc received July 2020 from Andrzej Kloneki
Number of data points:
281
Wavenumber (cm-1)   Filter response
      685.300000       0.000000
      685.350000       0.000000
      685.400000       0.000000
      685.450000       0.000000
      685.500000       0.000000
      685.550000       0.000000
      685.600000       0.000000
      685.650000       0.000000
      685.700000       0.000000
      685.750000       0.000000
      685.800000       0.000000
      685.850000       0.000000
      685.900000       0.000000
      685.950000       0.000000
      686.000000       0.000000
      686.050000       0.000000
      686.100000       0.000000
      686.150000       0.000000
      686.200000       0.000000
      686.250000       0.000000
      686.300000       0.000000
      686.350000       0.000000
      686.400000       0.000000
      686.450000       0.000000
      686.500000       0.000000
      686.550000       0.000000
      686.600000       0.000000
      686.650000       0.000000
      686.700000       0.000000
      686.750000       0.000000
      686.800000       0.000000
      686.850000       0.000000
      686.900000       0.000000
      686.950000       0.000000
      687.000000       0.000000
      687.050000       0.000000
      687.100000       0.000000
      687.150000       0.000000
      687.200000       0.000000
      687.250000       0.000000
      687.300000       0.000000
      687.350000       0.007241
      687.400000       0.017297
      687.450000       0.027353
      687.500000       0.037409
      687.550000       0.047466
      687.600000       0.057522
      687.650000       0.067578
      687.700000       0.077635
      687.750000       0.087691
      687.800000       0.097747
      687.850000       0.107804
      687.900000       0.117860
      687.950000       0.127916
      688.000000       0.137973
      688.050000       0.148029
      688.100000       0.158085
      688.150000       0.168142
      688.200000       0.178198
      688.250000       0.188254
      688.300000       0.198311
      688.350000       0.208367
      688.400000       0.218423
      688.450000       0.228479
      688.500000       0.238536
      688.550000       0.248592
      688.600000       0.258648
      688.650000       0.268705
      688.700000       0.278761
      688.750000       0.288817
      688.800000       0.298874
      688.850000       0.308930
      688.900000       0.318986
      688.950000       0.329043
      689.000000       0.339099
      689.050000       0.349155
      689.100000       0.359212
      689.150000       0.369268
      689.200000       0.379324
      689.250000       0.389381
      689.300000       0.399437
      689.350000       0.409493
      689.400000       0.419549
      689.450000       0.429606
      689.500000       0.439662
      689.550000       0.449718
      689.600000       0.459775
      689.650000       0.469831
      689.700000       0.479887
      689.750000       0.489944
      689.800000       0.500000
      689.850000       0.510056
      689.900000       0.520113
      689.950000       0.530169
      690.000000       0.540225
      690.050000       0.550282
      690.100000       0.560338
      690.150000       0.570394
      690.200000       0.580451
      690.250000       0.590507
      690.300000       0.600563
      690.350000       0.610619
      690.400000       0.620676
      690.450000       0.630732
      690.500000       0.640788
      690.550000       0.650845
      690.600000       0.660901
      690.650000       0.670957
      690.700000       0.681014
      690.750000       0.691070
      690.800000       0.701126
      690.850000       0.711183
      690.900000       0.721239
      690.950000       0.731295
      691.000000       0.741352
      691.050000       0.751408
      691.100000       0.761464
      691.150000       0.771521
      691.200000       0.781577
      691.250000       0.791633
      691.300000       0.801689
      691.350000       0.811746
      691.400000       0.821802
      691.450000       0.831858
      691.500000       0.841915
      691.550000       0.851971
      691.600000       0.862027
      691.650000       0.872084
      691.700000       0.882140
      691.750000       0.892196
      691.800000       0.902253
      691.850000       0.912309
      691.900000       0.922365
      691.950000       0.932422
      692.000000       0.942478
      692.050000       0.952534
      692.100000       0.962591
      692.150000       0.972647
      692.200000       0.982703
      692.250000       0.992759
      692.300000       1.000000
      692.350000       0.992759
      692.400000       0.982703
      692.450000       0.972647
      692.500000       0.962591
      692.550000       0.952534
      692.600000       0.942478
      692.650000       0.932422
      692.700000       0.922365
      692.750000       0.912309
      692.800000       0.902253
      692.850000       0.892196
      692.900000       0.882140
      692.950000       0.872084
      693.000000       0.862027
      693.050000       0.851971
      693.100000       0.841915
      693.150000       0.831858
      693.200000       0.821802
      693.250000       0.811746
      693.300000       0.801689
      693.350000       0.791633
      693.400000       0.781577
      693.450000       0.771521
      693.500000       0.761464
      693.550000       0.751408
      693.600000       0.741352
      693.650000       0.731295
      693.700000       0.721239
      693.750000       0.711183
      693.800000       0.701126
      693.850000       0.691070
      693.900000       0.681014
      693.950000       0.670957
      694.000000       0.660901
      694.050000       0.650845
      694.100000       0.640788
      694.150000       0.630732
      694.200000       0.620676
      694.250000       0.610619
      694.300000       0.600563
      694.350000       0.590507
      694.400000       0.580451
      694.450000       0.570394
      694.500000       0.560338
      694.550000       0.550282
      694.600000       0.540225
      694.650000       0.530169
      694.700000       0.520113
      694.750000       0.510056
      694.800000       0.500000
      694.850000       0.489944
      694.900000       0.479887
      694.950000       0.469831
      695.000000       0.459775
      695.050000       0.449718
      695.100000       0.439662
      695.150000       0.429606
      695.200000       0.419549
      695.250000       0.409493
      695.300000       0.399437
      695.350000       0.389381
      695.400000       0.379324
      695.450000       0.369268
      695.500000       0.359212
      695.550000       0.349155
      695.600000       0.339099
      695.650000       0.329043
      695.700000       0.318986
      695.750000       0.308930
      695.800000       0.298874
      695.850000       0.288817
      695.900000       0.278761
      695.950000       0.268705
      696.000000       0.258648
      696.050000       0.248592
      696.100000       0.238536
      696.150000       0.228479
      696.200000       0.218423
      696.250000       0.208367
      696.300000       0.198311
      696.350000       0.188254
      696.400000       0.178198
      696.450000       0.168142
      696.500000       0.158085
      696.550000       0.148029
      696.600000       0.137973
      696.650000       0.127916
      696.700000       0.117860
      696.750000       0.107804
      696.800000       0.097747
      696.850000       0.087691
      696.900000       0.077635
      696.950000       0.067578
      697.000000       0.057522
      697.050000       0.047466
      697.100000       0.037409
      697.150000       0.027353
      697.200000       0.017297
      697.250000       0.007241
      697.300000       0.000000
      697.350000       0.000000
      697.400000       0.000000
      697.450000       0.000000
      697.500000       0.000000
      697.550000       0.000000
      697.600000       0.000000
      697.650000       0.000000
      697.700000       0.000000
      697.750000       0.000000
      697.800000       0.000000
      697.850000       0.000000
      697.900000       0.000000
      697.950000       0.000000
      698.000000       0.000000
      698.050000       0.000000
      698.100000       0.000000
      698.150000       0.000000
      698.200000       0.000000
      698.250000       0.000000
      698.300000       0.000000
      698.350000       0.000000
      698.400000       0.000000
      698.450000       0.000000
      698.500000       0.000000
      698.550000       0.000000
      698.600000       0.000000
      698.650000       0.000000
      698.700000       0.000000
      698.750000       0.000000
      698.800000       0.000000
      698.850000       0.000000
      698.900000       0.000000
      698.950000       0.000000
      699.000000       0.000000
      699.050000       0.000000
      699.100000       0.000000
      699.150000       0.000000
      699.200000       0.000000
      699.250000       0.000000
      699.300000       0.000000
