5,   AVHRR A309 Channel 4 extracted from AVHRR_A309_METOPC_SRF_PRELIMINARY.TXT (received July 2018)
Number of data points:
2569
Wavenumber (cm-1)   Filter response
      800.800000       0.006626
      800.900000       0.006095
      801.000000       0.005529
      801.100000       0.004934
      801.200000       0.004317
      801.300000       0.003682
      801.400000       0.003036
      801.500000       0.002382
      801.600000       0.001723
      801.700000       0.001063
      801.800000       0.000405
      801.900000       0.000000
      802.000000       0.000000
      802.100000       0.000000
      802.200000       0.000000
      802.300000       0.000000
      802.400000       0.000000
      802.500000       0.000000
      802.600000       0.000000
      802.700000       0.000000
      802.800000       0.000000
      802.900000       0.000000
      803.000000       0.000000
      803.100000       0.000000
      803.200000       0.000000
      803.300000       0.000000
      803.400000       0.000000
      803.500000       0.000000
      803.600000       0.000000
      803.700000       0.000000
      803.800000       0.000000
      803.900000       0.000000
      804.000000       0.000000
      804.100000       0.000000
      804.200000       0.000000
      804.300000       0.000000
      804.400000       0.000000
      804.500000       0.000000
      804.600000       0.000000
      804.700000       0.000000
      804.800000       0.000474
      804.900000       0.001203
      805.000000       0.001883
      805.100000       0.002500
      805.200000       0.003038
      805.300000       0.003492
      805.400000       0.003869
      805.500000       0.004176
      805.600000       0.004419
      805.700000       0.004603
      805.800000       0.004736
      805.900000       0.004822
      806.000000       0.004868
      806.100000       0.004879
      806.200000       0.004861
      806.300000       0.004819
      806.400000       0.004757
      806.500000       0.004683
      806.600000       0.004598
      806.700000       0.004503
      806.800000       0.004402
      806.900000       0.004293
      807.000000       0.004179
      807.100000       0.004061
      807.200000       0.003940
      807.300000       0.003817
      807.400000       0.003693
      807.500000       0.003570
      807.600000       0.003448
      807.700000       0.003328
      807.800000       0.003212
      807.900000       0.003102
      808.000000       0.002999
      808.100000       0.002905
      808.200000       0.002824
      808.300000       0.002757
      808.400000       0.002706
      808.500000       0.002674
      808.600000       0.002662
      808.700000       0.002675
      808.800000       0.002714
      808.900000       0.002782
      809.000000       0.002881
      809.100000       0.003014
      809.200000       0.003178
      809.300000       0.003358
      809.400000       0.003541
      809.500000       0.003713
      809.600000       0.003861
      809.700000       0.003968
      809.800000       0.004023
      809.900000       0.004011
      810.000000       0.003916
      810.100000       0.003724
      810.200000       0.003420
      810.300000       0.002989
      810.400000       0.002415
      810.500000       0.001697
      810.600000       0.000864
      810.700000       0.000000
      810.800000       0.000000
      810.900000       0.000000
      811.000000       0.000000
      811.100000       0.000000
      811.200000       0.000000
      811.300000       0.000000
      811.400000       0.000000
      811.500000       0.000000
      811.600000       0.000000
      811.700000       0.000000
      811.800000       0.000000
      811.900000       0.000000
      812.000000       0.000000
      812.100000       0.000000
      812.200000       0.000000
      812.300000       0.000000
      812.400000       0.000000
      812.500000       0.000000
      812.600000       0.000000
      812.700000       0.000000
      812.800000       0.000526
      812.900000       0.001001
      813.000000       0.001278
      813.100000       0.001326
      813.200000       0.001161
      813.300000       0.000813
      813.400000       0.000310
      813.500000       0.000000
      813.600000       0.000000
      813.700000       0.000000
      813.800000       0.000000
      813.900000       0.000000
      814.000000       0.000000
      814.100000       0.000000
      814.200000       0.000000
      814.300000       0.000000
      814.400000       0.000000
      814.500000       0.000000
      814.600000       0.000000
      814.700000       0.000000
      814.800000       0.000000
      814.900000       0.000000
      815.000000       0.000000
      815.100000       0.000000
      815.200000       0.000000
      815.300000       0.000000
      815.400000       0.000000
      815.500000       0.000000
      815.600000       0.000000
      815.700000       0.000000
      815.800000       0.000000
      815.900000       0.000000
      816.000000       0.000000
      816.100000       0.000000
      816.200000       0.000000
      816.300000       0.000000
      816.400000       0.000000
      816.500000       0.000000
      816.600000       0.000000
      816.700000       0.000000
      816.800000       0.000000
      816.900000       0.000014
      817.000000       0.000074
      817.100000       0.000025
      817.200000       0.000000
      817.300000       0.000000
      817.400000       0.000000
      817.500000       0.000000
      817.600000       0.000000
      817.700000       0.000000
      817.800000       0.000000
      817.900000       0.000000
      818.000000       0.000000
      818.100000       0.000000
      818.200000       0.000000
      818.300000       0.000000
      818.400000       0.000000
      818.500000       0.000000
      818.600000       0.000000
      818.700000       0.000000
      818.800000       0.000000
      818.900000       0.000000
      819.000000       0.000000
      819.100000       0.000000
      819.200000       0.000000
      819.300000       0.000000
      819.400000       0.000000
      819.500000       0.000000
      819.600000       0.000000
      819.700000       0.000000
      819.800000       0.000000
      819.900000       0.000000
      820.000000       0.000000
      820.100000       0.000000
      820.200000       0.000000
      820.300000       0.000000
      820.400000       0.000000
      820.500000       0.000000
      820.600000       0.000000
      820.700000       0.000000
      820.800000       0.000000
      820.900000       0.000000
      821.000000       0.000000
      821.100000       0.000000
      821.200000       0.000000
      821.300000       0.000000
      821.400000       0.000000
      821.500000       0.000000
      821.600000       0.000000
      821.700000       0.000000
      821.800000       0.000000
      821.900000       0.000000
      822.000000       0.000000
      822.100000       0.000000
      822.200000       0.000000
      822.300000       0.000000
      822.400000       0.000000
      822.500000       0.000281
      822.600000       0.000677
      822.700000       0.001113
      822.800000       0.001576
      822.900000       0.002057
      823.000000       0.002544
      823.100000       0.003027
      823.200000       0.003494
      823.300000       0.003936
      823.400000       0.004341
      823.500000       0.004698
      823.600000       0.004996
      823.700000       0.005224
      823.800000       0.005372
      823.900000       0.005444
      824.000000       0.005449
      824.100000       0.005396
      824.200000       0.005296
      824.300000       0.005158
      824.400000       0.004991
      824.500000       0.004804
      824.600000       0.004607
      824.700000       0.004408
      824.800000       0.004216
      824.900000       0.004040
      825.000000       0.003890
      825.100000       0.003775
      825.200000       0.003699
      825.300000       0.003655
      825.400000       0.003632
      825.500000       0.003623
      825.600000       0.003618
      825.700000       0.003608
      825.800000       0.003583
      825.900000       0.003535
      826.000000       0.003454
      826.100000       0.003332
      826.200000       0.003158
      826.300000       0.002923
      826.400000       0.002617
      826.500000       0.002230
      826.600000       0.001767
      826.700000       0.001239
      826.800000       0.000663
      826.900000       0.000050
      827.000000       0.000000
      827.100000       0.000000
      827.200000       0.000000
      827.300000       0.000000
      827.400000       0.000000
      827.500000       0.000000
      827.600000       0.000000
      827.700000       0.000000
      827.800000       0.000000
      827.900000       0.000000
      828.000000       0.000000
      828.100000       0.000000
      828.200000       0.000000
      828.300000       0.000000
      828.400000       0.000000
      828.500000       0.000000
      828.600000       0.000000
      828.700000       0.000000
      828.800000       0.000000
      828.900000       0.000000
      829.000000       0.000000
      829.100000       0.000000
      829.200000       0.000000
      829.300000       0.000000
      829.400000       0.000000
      829.500000       0.000000
      829.600000       0.000000
      829.700000       0.000000
      829.800000       0.000000
      829.900000       0.000000
      830.000000       0.000000
      830.100000       0.000000
      830.200000       0.000000
      830.300000       0.000000
      830.400000       0.000000
      830.500000       0.000000
      830.600000       0.000000
      830.700000       0.000000
      830.800000       0.000000
      830.900000       0.000000
      831.000000       0.000000
      831.100000       0.000000
      831.200000       0.000000
      831.300000       0.000000
      831.400000       0.000000
      831.500000       0.000000
      831.600000       0.000000
      831.700000       0.000000
      831.800000       0.000000
      831.900000       0.000000
      832.000000       0.000000
      832.100000       0.000000
      832.200000       0.000000
      832.300000       0.000000
      832.400000       0.000000
      832.500000       0.000000
      832.600000       0.000000
      832.700000       0.000000
      832.800000       0.000000
      832.900000       0.000000
      833.000000       0.000000
      833.100000       0.000000
      833.200000       0.000000
      833.300000       0.000000
      833.400000       0.000000
      833.500000       0.000000
      833.600000       0.000000
      833.700000       0.000000
      833.800000       0.000000
      833.900000       0.000000
      834.000000       0.000000
      834.100000       0.000000
      834.200000       0.000000
      834.300000       0.000000
      834.400000       0.000000
      834.500000       0.000000
      834.600000       0.000000
      834.700000       0.000000
      834.800000       0.000000
      834.900000       0.000000
      835.000000       0.000000
      835.100000       0.000000
      835.200000       0.000000
      835.300000       0.000000
      835.400000       0.000000
      835.500000       0.000000
      835.600000       0.000000
      835.700000       0.000000
      835.800000       0.000000
      835.900000       0.000000
      836.000000       0.000000
      836.100000       0.000000
      836.200000       0.000000
      836.300000       0.000000
      836.400000       0.000000
      836.500000       0.000000
      836.600000       0.000000
      836.700000       0.000491
      836.800000       0.001253
      836.900000       0.001997
      837.000000       0.002712
      837.100000       0.003384
      837.200000       0.004003
      837.300000       0.004554
      837.400000       0.005026
      837.500000       0.005406
      837.600000       0.005682
      837.700000       0.005855
      837.800000       0.005930
      837.900000       0.005914
      838.000000       0.005811
      838.100000       0.005627
      838.200000       0.005367
      838.300000       0.005035
      838.400000       0.004636
      838.500000       0.004173
      838.600000       0.003651
      838.700000       0.003074
      838.800000       0.002444
      838.900000       0.001767
      839.000000       0.001044
      839.100000       0.000288
      839.200000       0.000000
      839.300000       0.000000
      839.400000       0.000000
      839.500000       0.000000
      839.600000       0.000000
      839.700000       0.000000
      839.800000       0.000000
      839.900000       0.000000
      840.000000       0.000000
      840.100000       0.000000
      840.200000       0.000000
      840.300000       0.000000
      840.400000       0.000000
      840.500000       0.000000
      840.600000       0.000000
      840.700000       0.000000
      840.800000       0.000000
      840.900000       0.000000
      841.000000       0.000000
      841.100000       0.000000
      841.200000       0.000000
      841.300000       0.000000
      841.400000       0.000000
      841.500000       0.000000
      841.600000       0.000360
      841.700000       0.000825
      841.800000       0.001187
      841.900000       0.001442
      842.000000       0.001599
      842.100000       0.001667
      842.200000       0.001655
      842.300000       0.001572
      842.400000       0.001427
      842.500000       0.001228
      842.600000       0.000983
      842.700000       0.000701
      842.800000       0.000389
      842.900000       0.000056
      843.000000       0.000000
      843.100000       0.000000
      843.200000       0.000000
      843.300000       0.000000
      843.400000       0.000000
      843.500000       0.000000
      843.600000       0.000000
      843.700000       0.000000
      843.800000       0.000000
      843.900000       0.000000
      844.000000       0.000000
      844.100000       0.000000
      844.200000       0.000000
      844.300000       0.000000
      844.400000       0.000000
      844.500000       0.000000
      844.600000       0.000000
      844.700000       0.000000
      844.800000       0.000000
      844.900000       0.000000
      845.000000       0.000000
      845.100000       0.000000
      845.200000       0.000000
      845.300000       0.000000
      845.400000       0.000000
      845.500000       0.000000
      845.600000       0.000000
      845.700000       0.000000
      845.800000       0.000000
      845.900000       0.000000
      846.000000       0.000000
      846.100000       0.000000
      846.200000       0.000000
      846.300000       0.000000
      846.400000       0.000000
      846.500000       0.000000
      846.600000       0.000000
      846.700000       0.000000
      846.800000       0.000000
      846.900000       0.000000
      847.000000       0.000000
      847.100000       0.000000
      847.200000       0.000000
      847.300000       0.000000
      847.400000       0.000000
      847.500000       0.000000
      847.600000       0.000000
      847.700000       0.000000
      847.800000       0.000000
      847.900000       0.000000
      848.000000       0.000031
      848.100000       0.000365
      848.200000       0.000684
      848.300000       0.000982
      848.400000       0.001253
      848.500000       0.001491
      848.600000       0.001689
      848.700000       0.001841
      848.800000       0.001941
      848.900000       0.001982
      849.000000       0.001959
      849.100000       0.001880
      849.200000       0.001752
      849.300000       0.001584
      849.400000       0.001382
      849.500000       0.001156
      849.600000       0.000913
      849.700000       0.000660
      849.800000       0.000406
      849.900000       0.000158
      850.000000       0.000000
      850.100000       0.000000
      850.200000       0.000000
      850.300000       0.000000
      850.400000       0.000000
      850.500000       0.000000
      850.600000       0.000000
      850.700000       0.000000
      850.800000       0.000000
      850.900000       0.000000
      851.000000       0.000000
      851.100000       0.000000
      851.200000       0.000000
      851.300000       0.000000
      851.400000       0.000000
      851.500000       0.000000
      851.600000       0.000000
      851.700000       0.000000
      851.800000       0.000000
      851.900000       0.000000
      852.000000       0.000000
      852.100000       0.000000
      852.200000       0.000000
      852.300000       0.000000
      852.400000       0.000000
      852.500000       0.000000
      852.600000       0.000000
      852.700000       0.000000
      852.800000       0.000000
      852.900000       0.000000
      853.000000       0.000000
      853.100000       0.000000
      853.200000       0.000000
      853.300000       0.000000
      853.400000       0.000000
      853.500000       0.000000
      853.600000       0.000000
      853.700000       0.000000
      853.800000       0.000000
      853.900000       0.000000
      854.000000       0.000000
      854.100000       0.000000
      854.200000       0.000000
      854.300000       0.000000
      854.400000       0.000000
      854.500000       0.000000
      854.600000       0.000000
      854.700000       0.000000
      854.800000       0.000000
      854.900000       0.000000
      855.000000       0.000000
      855.100000       0.000000
      855.200000       0.000000
      855.300000       0.000000
      855.400000       0.000000
      855.500000       0.000000
      855.600000       0.000000
      855.700000       0.000000
      855.800000       0.000000
      855.900000       0.000000
      856.000000       0.000000
      856.100000       0.000000
      856.200000       0.000000
      856.300000       0.000000
      856.400000       0.000000
      856.500000       0.000000
      856.600000       0.000000
      856.700000       0.000000
      856.800000       0.000000
      856.900000       0.000000
      857.000000       0.000000
      857.100000       0.000000
      857.200000       0.000000
      857.300000       0.000000
      857.400000       0.000000
      857.500000       0.000000
      857.600000       0.000000
      857.700000       0.000000
      857.800000       0.000000
      857.900000       0.000000
      858.000000       0.000000
      858.100000       0.000000
      858.200000       0.000000
      858.300000       0.000000
      858.400000       0.000000
      858.500000       0.000000
      858.600000       0.000000
      858.700000       0.000000
      858.800000       0.000000
      858.900000       0.000000
      859.000000       0.000000
      859.100000       0.000000
      859.200000       0.000000
      859.300000       0.000000
      859.400000       0.000000
      859.500000       0.000000
      859.600000       0.000000
      859.700000       0.000000
      859.800000       0.000000
      859.900000       0.000000
      860.000000       0.000000
      860.100000       0.000000
      860.200000       0.000000
      860.300000       0.000000
      860.400000       0.000000
      860.500000       0.000000
      860.600000       0.000000
      860.700000       0.000000
      860.800000       0.000000
      860.900000       0.000000
      861.000000       0.000000
      861.100000       0.000000
      861.200000       0.000000
      861.300000       0.000000
      861.400000       0.000000
      861.500000       0.000000
      861.600000       0.000000
      861.700000       0.000000
      861.800000       0.000000
      861.900000       0.000000
      862.000000       0.000000
      862.100000       0.000000
      862.200000       0.000000
      862.300000       0.000000
      862.400000       0.000000
      862.500000       0.000000
      862.600000       0.000000
      862.700000       0.000000
      862.800000       0.000000
      862.900000       0.000000
      863.000000       0.000000
      863.100000       0.000003
      863.200000       0.000484
      863.300000       0.000933
      863.400000       0.001341
      863.500000       0.001698
      863.600000       0.001993
      863.700000       0.002226
      863.800000       0.002402
      863.900000       0.002530
      864.000000       0.002618
      864.100000       0.002672
      864.200000       0.002700
      864.300000       0.002708
      864.400000       0.002706
      864.500000       0.002698
      864.600000       0.002693
      864.700000       0.002698
      864.800000       0.002719
      864.900000       0.002765
      865.000000       0.002841
      865.100000       0.002955
      865.200000       0.003110
      865.300000       0.003298
      865.400000       0.003515
      865.500000       0.003756
      865.600000       0.004015
      865.700000       0.004288
      865.800000       0.004570
      865.900000       0.004854
      866.000000       0.005137
      866.100000       0.005413
      866.200000       0.005678
      866.300000       0.005925
      866.400000       0.006150
      866.500000       0.006349
      866.600000       0.006514
      866.700000       0.006647
      866.800000       0.006751
      866.900000       0.006830
      867.000000       0.006887
      867.100000       0.006928
      867.200000       0.006955
      867.300000       0.006973
      867.400000       0.006986
      867.500000       0.006996
      867.600000       0.007009
      867.700000       0.007027
      867.800000       0.007055
      867.900000       0.007096
      868.000000       0.007154
      868.100000       0.007234
      868.200000       0.007336
      868.300000       0.007460
      868.400000       0.007605
      868.500000       0.007770
      868.600000       0.007954
      868.700000       0.008156
      868.800000       0.008376
      868.900000       0.008613
      869.000000       0.008866
      869.100000       0.009135
      869.200000       0.009419
      869.300000       0.009718
      869.400000       0.010031
      869.500000       0.010359
      869.600000       0.010700
      869.700000       0.011055
      869.800000       0.011425
      869.900000       0.011810
      870.000000       0.012211
      870.100000       0.012630
      870.200000       0.013068
      870.300000       0.013525
      870.400000       0.014002
      870.500000       0.014502
      870.600000       0.015024
      870.700000       0.015572
      870.800000       0.016145
      870.900000       0.016746
      871.000000       0.017376
      871.100000       0.018037
      871.200000       0.018729
      871.300000       0.019451
      871.400000       0.020200
      871.500000       0.020974
      871.600000       0.021771
      871.700000       0.022588
      871.800000       0.023425
      871.900000       0.024278
      872.000000       0.025147
      872.100000       0.026028
      872.200000       0.026922
      872.300000       0.027825
      872.400000       0.028736
      872.500000       0.029655
      872.600000       0.030577
      872.700000       0.031504
      872.800000       0.032437
      872.900000       0.033382
      873.000000       0.034342
      873.100000       0.035320
      873.200000       0.036323
      873.300000       0.037352
      873.400000       0.038413
      873.500000       0.039510
      873.600000       0.040647
      873.700000       0.041829
      873.800000       0.043061
      873.900000       0.044348
      874.000000       0.045695
      874.100000       0.047106
      874.200000       0.048588
      874.300000       0.050138
      874.400000       0.051753
      874.500000       0.053429
      874.600000       0.055163
      874.700000       0.056951
      874.800000       0.058789
      874.900000       0.060674
      875.000000       0.062606
      875.100000       0.064578
      875.200000       0.066591
      875.300000       0.068640
      875.400000       0.070722
      875.500000       0.072838
      875.600000       0.074983
      875.700000       0.077156
      875.800000       0.079357
      875.900000       0.081590
      876.000000       0.083861
      876.100000       0.086171
      876.200000       0.088527
      876.300000       0.090932
      876.400000       0.093391
      876.500000       0.095911
      876.600000       0.098494
      876.700000       0.101147
      876.800000       0.103874
      876.900000       0.106681
      877.000000       0.109577
      877.100000       0.112564
      877.200000       0.115652
      877.300000       0.118842
      877.400000       0.122131
      877.500000       0.125515
      877.600000       0.128984
      877.700000       0.132538
      877.800000       0.136166
      877.900000       0.139866
      878.000000       0.143635
      878.100000       0.147466
      878.200000       0.151357
      878.300000       0.155300
      878.400000       0.159294
      878.500000       0.163338
      878.600000       0.167422
      878.700000       0.171549
      878.800000       0.175710
      878.900000       0.179908
      879.000000       0.184147
      879.100000       0.188424
      879.200000       0.192747
      879.300000       0.197114
      879.400000       0.201528
      879.500000       0.205997
      879.600000       0.210516
      879.700000       0.215095
      879.800000       0.219731
      879.900000       0.224431
      880.000000       0.229201
      880.100000       0.234039
      880.200000       0.238955
      880.300000       0.243948
      880.400000       0.249021
      880.500000       0.254172
      880.600000       0.259387
      880.700000       0.264667
      880.800000       0.269999
      880.900000       0.275379
      881.000000       0.280804
      881.100000       0.286263
      881.200000       0.291755
      881.300000       0.297269
      881.400000       0.302802
      881.500000       0.308351
      881.600000       0.313905
      881.700000       0.319464
      881.800000       0.325017
      881.900000       0.330561
      882.000000       0.336099
      882.100000       0.341628
      882.200000       0.347156
      882.300000       0.352681
      882.400000       0.358207
      882.500000       0.363741
      882.600000       0.369280
      882.700000       0.374832
      882.800000       0.380393
      882.900000       0.385971
      883.000000       0.391570
      883.100000       0.397189
      883.200000       0.402835
      883.300000       0.408506
      883.400000       0.414207
      883.500000       0.419946
      883.600000       0.425712
      883.700000       0.431511
      883.800000       0.437334
      883.900000       0.443182
      884.000000       0.449056
      884.100000       0.454947
      884.200000       0.460861
      884.300000       0.466788
      884.400000       0.472730
      884.500000       0.478690
      884.600000       0.484657
      884.700000       0.490639
      884.800000       0.496625
      884.900000       0.502618
      885.000000       0.508620
      885.100000       0.514618
      885.200000       0.520609
      885.300000       0.526575
      885.400000       0.532510
      885.500000       0.538406
      885.600000       0.544246
      885.700000       0.550026
      885.800000       0.555728
      885.900000       0.561344
      886.000000       0.566865
      886.100000       0.572274
      886.200000       0.577564
      886.300000       0.582716
      886.400000       0.587721
      886.500000       0.592568
      886.600000       0.597240
      886.700000       0.601752
      886.800000       0.606121
      886.900000       0.610371
      887.000000       0.614525
      887.100000       0.618597
      887.200000       0.622614
      887.300000       0.626590
      887.400000       0.630548
      887.500000       0.634509
      887.600000       0.638490
      887.700000       0.642513
      887.800000       0.646595
      887.900000       0.650759
      888.000000       0.655026
      888.100000       0.659413
      888.200000       0.663938
      888.300000       0.668574
      888.400000       0.673296
      888.500000       0.678078
      888.600000       0.682886
      888.700000       0.687699
      888.800000       0.692481
      888.900000       0.697209
      889.000000       0.701855
      889.100000       0.706387
      889.200000       0.710781
      889.300000       0.715002
      889.400000       0.719023
      889.500000       0.722815
      889.600000       0.726343
      889.700000       0.729579
      889.800000       0.732506
      889.900000       0.735155
      890.000000       0.737561
      890.100000       0.739757
      890.200000       0.741776
      890.300000       0.743649
      890.400000       0.745410
      890.500000       0.747090
      890.600000       0.748719
      890.700000       0.750330
      890.800000       0.751952
      890.900000       0.753617
      891.000000       0.755358
      891.100000       0.757203
      891.200000       0.759187
      891.300000       0.761339
      891.400000       0.763672
      891.500000       0.766170
      891.600000       0.768808
      891.700000       0.771568
      891.800000       0.774429
      891.900000       0.777371
      892.000000       0.780378
      892.100000       0.783426
      892.200000       0.786500
      892.300000       0.789578
      892.400000       0.792643
      892.500000       0.795676
      892.600000       0.798656
      892.700000       0.801568
      892.800000       0.804387
      892.900000       0.807097
      893.000000       0.809689
      893.100000       0.812164
      893.200000       0.814528
      893.300000       0.816782
      893.400000       0.818929
      893.500000       0.820973
      893.600000       0.822914
      893.700000       0.824756
      893.800000       0.826499
      893.900000       0.828144
      894.000000       0.829693
      894.100000       0.831146
      894.200000       0.832503
      894.300000       0.833764
      894.400000       0.834929
      894.500000       0.835997
      894.600000       0.836970
      894.700000       0.837854
      894.800000       0.838653
      894.900000       0.839371
      895.000000       0.840013
      895.100000       0.840583
      895.200000       0.841085
      895.300000       0.841523
      895.400000       0.841900
      895.500000       0.842220
      895.600000       0.842484
      895.700000       0.842697
      895.800000       0.842861
      895.900000       0.842979
      896.000000       0.843053
      896.100000       0.843085
      896.200000       0.843082
      896.300000       0.843053
      896.400000       0.843009
      896.500000       0.842960
      896.600000       0.842916
      896.700000       0.842887
      896.800000       0.842883
      896.900000       0.842916
      897.000000       0.842994
      897.100000       0.843130
      897.200000       0.843333
      897.300000       0.843615
      897.400000       0.843986
      897.500000       0.844459
      897.600000       0.845046
      897.700000       0.845757
      897.800000       0.846593
      897.900000       0.847536
      898.000000       0.848564
      898.100000       0.849658
      898.200000       0.850799
      898.300000       0.851965
      898.400000       0.853138
      898.500000       0.854300
      898.600000       0.855428
      898.700000       0.856506
      898.800000       0.857511
      898.900000       0.858425
      899.000000       0.859227
      899.100000       0.859896
      899.200000       0.860411
      899.300000       0.860751
      899.400000       0.860905
      899.500000       0.860887
      899.600000       0.860714
      899.700000       0.860402
      899.800000       0.859969
      899.900000       0.859429
      900.000000       0.858797
      900.100000       0.858090
      900.200000       0.857321
      900.300000       0.856507
      900.400000       0.855661
      900.500000       0.854796
      900.600000       0.853930
      900.700000       0.853074
      900.800000       0.852244
      900.900000       0.851455
      901.000000       0.850719
      901.100000       0.850049
      901.200000       0.849454
      901.300000       0.848944
      901.400000       0.848531
      901.500000       0.848225
      901.600000       0.848037
      901.700000       0.847979
      901.800000       0.848064
      901.900000       0.848304
      902.000000       0.848712
      902.100000       0.849302
      902.200000       0.850087
      902.300000       0.851083
      902.400000       0.852304
      902.500000       0.853769
      902.600000       0.855487
      902.700000       0.857437
      902.800000       0.859569
      902.900000       0.861840
      903.000000       0.864206
      903.100000       0.866619
      903.200000       0.869039
      903.300000       0.871417
      903.400000       0.873710
      903.500000       0.875875
      903.600000       0.877865
      903.700000       0.879635
      903.800000       0.881137
      903.900000       0.882324
      904.000000       0.883150
      904.100000       0.883563
      904.200000       0.883513
      904.300000       0.882997
      904.400000       0.882063
      904.500000       0.880764
      904.600000       0.879153
      904.700000       0.877278
      904.800000       0.875192
      904.900000       0.872943
      905.000000       0.870578
      905.100000       0.868147
      905.200000       0.865696
      905.300000       0.863277
      905.400000       0.860935
      905.500000       0.858717
      905.600000       0.856675
      905.700000       0.854855
      905.800000       0.853310
      905.900000       0.852075
      906.000000       0.851129
      906.100000       0.850442
      906.200000       0.849985
      906.300000       0.849727
      906.400000       0.849639
      906.500000       0.849694
      906.600000       0.849863
      906.700000       0.850120
      906.800000       0.850436
      906.900000       0.850785
      907.000000       0.851140
      907.100000       0.851474
      907.200000       0.851760
      907.300000       0.851971
      907.400000       0.852079
      907.500000       0.852059
      907.600000       0.851911
      907.700000       0.851652
      907.800000       0.851305
      907.900000       0.850888
      908.000000       0.850420
      908.100000       0.849922
      908.200000       0.849411
      908.300000       0.848907
      908.400000       0.848429
      908.500000       0.847996
      908.600000       0.847628
      908.700000       0.847344
      908.800000       0.847164
      908.900000       0.847107
      909.000000       0.847195
      909.100000       0.847448
      909.200000       0.847879
      909.300000       0.848466
      909.400000       0.849187
      909.500000       0.850017
      909.600000       0.850932
      909.700000       0.851910
      909.800000       0.852926
      909.900000       0.853958
      910.000000       0.854984
      910.100000       0.855978
      910.200000       0.856919
      910.300000       0.857783
      910.400000       0.858546
      910.500000       0.859186
      910.600000       0.859677
      910.700000       0.859994
      910.800000       0.860114
      910.900000       0.860039
      911.000000       0.859794
      911.100000       0.859405
      911.200000       0.858898
      911.300000       0.858299
      911.400000       0.857632
      911.500000       0.856922
      911.600000       0.856194
      911.700000       0.855472
      911.800000       0.854781
      911.900000       0.854146
      912.000000       0.853590
      912.100000       0.853141
      912.200000       0.852822
      912.300000       0.852660
      912.400000       0.852682
      912.500000       0.852907
      912.600000       0.853320
      912.700000       0.853895
      912.800000       0.854607
      912.900000       0.855430
      913.000000       0.856341
      913.100000       0.857314
      913.200000       0.858326
      913.300000       0.859351
      913.400000       0.860366
      913.500000       0.861347
      913.600000       0.862269
      913.700000       0.863109
      913.800000       0.863842
      913.900000       0.864441
      914.000000       0.864883
      914.100000       0.865141
      914.200000       0.865202
      914.300000       0.865084
      914.400000       0.864805
      914.500000       0.864384
      914.600000       0.863838
      914.700000       0.863186
      914.800000       0.862445
      914.900000       0.861633
      915.000000       0.860764
      915.100000       0.859858
      915.200000       0.858930
      915.300000       0.857997
      915.400000       0.857075
      915.500000       0.856181
      915.600000       0.855331
      915.700000       0.854542
      915.800000       0.853832
      915.900000       0.853205
      916.000000       0.852654
      916.100000       0.852176
      916.200000       0.851763
      916.300000       0.851411
      916.400000       0.851113
      916.500000       0.850865
      916.600000       0.850661
      916.700000       0.850497
      916.800000       0.850368
      916.900000       0.850269
      917.000000       0.850196
      917.100000       0.850144
      917.200000       0.850109
      917.300000       0.850086
      917.400000       0.850071
      917.500000       0.850061
      917.600000       0.850060
      917.700000       0.850078
      917.800000       0.850125
      917.900000       0.850210
      918.000000       0.850345
      918.100000       0.850538
      918.200000       0.850801
      918.300000       0.851144
      918.400000       0.851578
      918.500000       0.852114
      918.600000       0.852764
      918.700000       0.853540
      918.800000       0.854453
      918.900000       0.855517
      919.000000       0.856745
      919.100000       0.858150
      919.200000       0.859744
      919.300000       0.861512
      919.400000       0.863434
      919.500000       0.865489
      919.600000       0.867653
      919.700000       0.869909
      919.800000       0.872232
      919.900000       0.874604
      920.000000       0.877005
      920.100000       0.879414
      920.200000       0.881812
      920.300000       0.884177
      920.400000       0.886489
      920.500000       0.888731
      920.600000       0.890877
      920.700000       0.892911
      920.800000       0.894808
      920.900000       0.896552
      921.000000       0.898148
      921.100000       0.899604
      921.200000       0.900934
      921.300000       0.902145
      921.400000       0.903248
      921.500000       0.904254
      921.600000       0.905170
      921.700000       0.906005
      921.800000       0.906769
      921.900000       0.907469
      922.000000       0.908113
      922.100000       0.908710
      922.200000       0.909268
      922.300000       0.909794
      922.400000       0.910295
      922.500000       0.910780
      922.600000       0.911254
      922.700000       0.911714
      922.800000       0.912155
      922.900000       0.912571
      923.000000       0.912957
      923.100000       0.913306
      923.200000       0.913613
      923.300000       0.913872
      923.400000       0.914077
      923.500000       0.914221
      923.600000       0.914298
      923.700000       0.914300
      923.800000       0.914222
      923.900000       0.914055
      924.000000       0.913792
      924.100000       0.913426
      924.200000       0.912948
      924.300000       0.912352
      924.400000       0.911646
      924.500000       0.910845
      924.600000       0.909964
      924.700000       0.909013
      924.800000       0.908009
      924.900000       0.906964
      925.000000       0.905889
      925.100000       0.904800
      925.200000       0.903708
      925.300000       0.902627
      925.400000       0.901570
      925.500000       0.900548
      925.600000       0.899576
      925.700000       0.898666
      925.800000       0.897833
      925.900000       0.897091
      926.000000       0.896450
      926.100000       0.895917
      926.200000       0.895488
      926.300000       0.895165
      926.400000       0.894947
      926.500000       0.894834
      926.600000       0.894826
      926.700000       0.894923
      926.800000       0.895127
      926.900000       0.895440
      927.000000       0.895862
      927.100000       0.896396
      927.200000       0.897045
      927.300000       0.897810
      927.400000       0.898696
      927.500000       0.899706
      927.600000       0.900843
      927.700000       0.902112
      927.800000       0.903505
      927.900000       0.905009
      928.000000       0.906610
      928.100000       0.908292
      928.200000       0.910043
      928.300000       0.911847
      928.400000       0.913691
      928.500000       0.915564
      928.600000       0.917449
      928.700000       0.919335
      928.800000       0.921207
      928.900000       0.923053
      929.000000       0.924861
      929.100000       0.926613
      929.200000       0.928300
      929.300000       0.929904
      929.400000       0.931414
      929.500000       0.932821
      929.600000       0.934131
      929.700000       0.935350
      929.800000       0.936481
      929.900000       0.937531
      930.000000       0.938505
      930.100000       0.939406
      930.200000       0.940240
      930.300000       0.941009
      930.400000       0.941718
      930.500000       0.942372
      930.600000       0.942971
      930.700000       0.943522
      930.800000       0.944026
      930.900000       0.944487
      931.000000       0.944907
      931.100000       0.945289
      931.200000       0.945637
      931.300000       0.945954
      931.400000       0.946244
      931.500000       0.946512
      931.600000       0.946762
      931.700000       0.946998
      931.800000       0.947224
      931.900000       0.947444
      932.000000       0.947662
      932.100000       0.947881
      932.200000       0.948107
      932.300000       0.948342
      932.400000       0.948592
      932.500000       0.948859
      932.600000       0.949149
      932.700000       0.949465
      932.800000       0.949811
      932.900000       0.950192
      933.000000       0.950608
      933.100000       0.951053
      933.200000       0.951526
      933.300000       0.952023
      933.400000       0.952539
      933.500000       0.953073
      933.600000       0.953621
      933.700000       0.954179
      933.800000       0.954744
      933.900000       0.955313
      934.000000       0.955884
      934.100000       0.956453
      934.200000       0.957016
      934.300000       0.957571
      934.400000       0.958115
      934.500000       0.958644
      934.600000       0.959155
      934.700000       0.959646
      934.800000       0.960118
      934.900000       0.960574
      935.000000       0.961016
      935.100000       0.961443
      935.200000       0.961860
      935.300000       0.962266
      935.400000       0.962663
      935.500000       0.963053
      935.600000       0.963438
      935.700000       0.963819
      935.800000       0.964197
      935.900000       0.964573
      936.000000       0.964950
      936.100000       0.965329
      936.200000       0.965711
      936.300000       0.966097
      936.400000       0.966489
      936.500000       0.966886
      936.600000       0.967286
      936.700000       0.967686
      936.800000       0.968084
      936.900000       0.968478
      937.000000       0.968866
      937.100000       0.969244
      937.200000       0.969612
      937.300000       0.969965
      937.400000       0.970303
      937.500000       0.970623
      937.600000       0.970921
      937.700000       0.971196
      937.800000       0.971445
      937.900000       0.971665
      938.000000       0.971853
      938.100000       0.972006
      938.200000       0.972124
      938.300000       0.972213
      938.400000       0.972283
      938.500000       0.972339
      938.600000       0.972391
      938.700000       0.972445
      938.800000       0.972509
      938.900000       0.972592
      939.000000       0.972701
      939.100000       0.972844
      939.200000       0.973029
      939.300000       0.973265
      939.400000       0.973558
      939.500000       0.973919
      939.600000       0.974355
      939.700000       0.974877
      939.800000       0.975491
      939.900000       0.976209
      940.000000       0.977027
      940.100000       0.977930
      940.200000       0.978905
      940.300000       0.979936
      940.400000       0.981008
      940.500000       0.982110
      940.600000       0.983224
      940.700000       0.984339
      940.800000       0.985440
      940.900000       0.986512
      941.000000       0.987543
      941.100000       0.988516
      941.200000       0.989419
      941.300000       0.990235
      941.400000       0.990951
      941.500000       0.991551
      941.600000       0.992019
      941.700000       0.992342
      941.800000       0.992528
      941.900000       0.992591
      942.000000       0.992550
      942.100000       0.992418
      942.200000       0.992210
      942.300000       0.991943
      942.400000       0.991630
      942.500000       0.991286
      942.600000       0.990925
      942.700000       0.990562
      942.800000       0.990212
      942.900000       0.989888
      943.000000       0.989606
      943.100000       0.989380
      943.200000       0.989224
      943.300000       0.989155
      943.400000       0.989186
      943.500000       0.989330
      943.600000       0.989577
      943.700000       0.989917
      943.800000       0.990337
      943.900000       0.990827
      944.000000       0.991376
      944.100000       0.991972
      944.200000       0.992607
      944.300000       0.993268
      944.400000       0.993946
      944.500000       0.994631
      944.600000       0.995312
      944.700000       0.995978
      944.800000       0.996620
      944.900000       0.997227
      945.000000       0.997789
      945.100000       0.998294
      945.200000       0.998733
      945.300000       0.999099
      945.400000       0.999394
      945.500000       0.999626
      945.600000       0.999798
      945.700000       0.999915
      945.800000       0.999981
      945.900000       1.000000
      946.000000       0.999977
      946.100000       0.999916
      946.200000       0.999820
      946.300000       0.999694
      946.400000       0.999540
      946.500000       0.999363
      946.600000       0.999166
      946.700000       0.998952
      946.800000       0.998724
      946.900000       0.998487
      947.000000       0.998243
      947.100000       0.997994
      947.200000       0.997740
      947.300000       0.997480
      947.400000       0.997213
      947.500000       0.996940
      947.600000       0.996659
      947.700000       0.996369
      947.800000       0.996070
      947.900000       0.995762
      948.000000       0.995442
      948.100000       0.995112
      948.200000       0.994768
      948.300000       0.994412
      948.400000       0.994041
      948.500000       0.993656
      948.600000       0.993254
      948.700000       0.992835
      948.800000       0.992398
      948.900000       0.991944
      949.000000       0.991478
      949.100000       0.991008
      949.200000       0.990538
      949.300000       0.990075
      949.400000       0.989625
      949.500000       0.989192
      949.600000       0.988785
      949.700000       0.988408
      949.800000       0.988068
      949.900000       0.987771
      950.000000       0.987524
      950.100000       0.987333
      950.200000       0.987205
      950.300000       0.987147
      950.400000       0.987167
      950.500000       0.987271
      950.600000       0.987468
      950.700000       0.987758
      950.800000       0.988131
      950.900000       0.988576
      951.000000       0.989082
      951.100000       0.989637
      951.200000       0.990232
      951.300000       0.990854
      951.400000       0.991494
      951.500000       0.992142
      951.600000       0.992787
      951.700000       0.993418
      951.800000       0.994025
      951.900000       0.994597
      952.000000       0.995124
      952.100000       0.995595
      952.200000       0.995999
      952.300000       0.996324
      952.400000       0.996559
      952.500000       0.996699
      952.600000       0.996751
      952.700000       0.996724
      952.800000       0.996627
      952.900000       0.996470
      953.000000       0.996261
      953.100000       0.996008
      953.200000       0.995720
      953.300000       0.995405
      953.400000       0.995071
      953.500000       0.994727
      953.600000       0.994380
      953.700000       0.994038
      953.800000       0.993710
      953.900000       0.993403
      954.000000       0.993126
      954.100000       0.992887
      954.200000       0.992695
      954.300000       0.992555
      954.400000       0.992464
      954.500000       0.992416
      954.600000       0.992405
      954.700000       0.992426
      954.800000       0.992472
      954.900000       0.992540
      955.000000       0.992623
      955.100000       0.992716
      955.200000       0.992815
      955.300000       0.992912
      955.400000       0.993004
      955.500000       0.993086
      955.600000       0.993151
      955.700000       0.993194
      955.800000       0.993211
      955.900000       0.993195
      956.000000       0.993141
      956.100000       0.993044
      956.200000       0.992900
      956.300000       0.992708
      956.400000       0.992465
      956.500000       0.992169
      956.600000       0.991817
      956.700000       0.991407
      956.800000       0.990936
      956.900000       0.990401
      957.000000       0.989798
      957.100000       0.989124
      957.200000       0.988376
      957.300000       0.987549
      957.400000       0.986640
      957.500000       0.985642
      957.600000       0.984554
      957.700000       0.983367
      957.800000       0.982079
      957.900000       0.980684
      958.000000       0.979184
      958.100000       0.977595
      958.200000       0.975929
      958.300000       0.974203
      958.400000       0.972429
      958.500000       0.970619
      958.600000       0.968791
      958.700000       0.966954
      958.800000       0.965125
      958.900000       0.963316
      959.000000       0.961540
      959.100000       0.959812
      959.200000       0.958144
      959.300000       0.956552
      959.400000       0.955050
      959.500000       0.953650
      959.600000       0.952371
      959.700000       0.951224
      959.800000       0.950220
      959.900000       0.949339
      960.000000       0.948556
      960.100000       0.947848
      960.200000       0.947192
      960.300000       0.946566
      960.400000       0.945946
      960.500000       0.945308
      960.600000       0.944630
      960.700000       0.943889
      960.800000       0.943061
      960.900000       0.942123
      961.000000       0.941050
      961.100000       0.939819
      961.200000       0.938404
      961.300000       0.936780
      961.400000       0.934921
      961.500000       0.932798
      961.600000       0.930388
      961.700000       0.927691
      961.800000       0.924734
      961.900000       0.921539
      962.000000       0.918125
      962.100000       0.914519
      962.200000       0.910736
      962.300000       0.906803
      962.400000       0.902738
      962.500000       0.898556
      962.600000       0.894283
      962.700000       0.889932
      962.800000       0.885528
      962.900000       0.881085
      963.000000       0.876621
      963.100000       0.872159
      963.200000       0.867711
      963.300000       0.863302
      963.400000       0.858947
      963.500000       0.854657
      963.600000       0.850431
      963.700000       0.846253
      963.800000       0.842120
      963.900000       0.838021
      964.000000       0.833943
      964.100000       0.829883
      964.200000       0.825826
      964.300000       0.821770
      964.400000       0.817702
      964.500000       0.813612
      964.600000       0.809495
      964.700000       0.805336
      964.800000       0.801133
      964.900000       0.796873
      965.000000       0.792544
      965.100000       0.788141
      965.200000       0.783650
      965.300000       0.779065
      965.400000       0.774383
      965.500000       0.769608
      965.600000       0.764754
      965.700000       0.759823
      965.800000       0.754827
      965.900000       0.749771
      966.000000       0.744658
      966.100000       0.739501
      966.200000       0.734300
      966.300000       0.729069
      966.400000       0.723809
      966.500000       0.718525
      966.600000       0.713228
      966.700000       0.707918
      966.800000       0.702608
      966.900000       0.697300
      967.000000       0.691997
      967.100000       0.686711
      967.200000       0.681442
      967.300000       0.676194
      967.400000       0.670959
      967.500000       0.665730
      967.600000       0.660508
      967.700000       0.655283
      967.800000       0.650057
      967.900000       0.644822
      968.000000       0.639571
      968.100000       0.634305
      968.200000       0.629014
      968.300000       0.623698
      968.400000       0.618352
      968.500000       0.612965
      968.600000       0.607541
      968.700000       0.602066
      968.800000       0.596544
      968.900000       0.590964
      969.000000       0.585319
      969.100000       0.579612
      969.200000       0.573842
      969.300000       0.568026
      969.400000       0.562167
      969.500000       0.556271
      969.600000       0.550351
      969.700000       0.544409
      969.800000       0.538459
      969.900000       0.532506
      970.000000       0.526554
      970.100000       0.520617
      970.200000       0.514696
      970.300000       0.508806
      970.400000       0.502951
      970.500000       0.497136
      970.600000       0.491376
      970.700000       0.485672
      970.800000       0.480039
      970.900000       0.474483
      971.000000       0.469004
      971.100000       0.463605
      971.200000       0.458275
      971.300000       0.453015
      971.400000       0.447817
      971.500000       0.442674
      971.600000       0.437588
      971.700000       0.432548
      971.800000       0.427558
      971.900000       0.422610
      972.000000       0.417698
      972.100000       0.412825
      972.200000       0.407980
      972.300000       0.403168
      972.400000       0.398381
      972.500000       0.393614
      972.600000       0.388869
      972.700000       0.384139
      972.800000       0.379426
      972.900000       0.374725
      973.000000       0.370036
      973.100000       0.365366
      973.200000       0.360709
      973.300000       0.356074
      973.400000       0.351459
      973.500000       0.346863
      973.600000       0.342294
      973.700000       0.337747
      973.800000       0.333230
      973.900000       0.328742
      974.000000       0.324283
      974.100000       0.319860
      974.200000       0.315470
      974.300000       0.311120
      974.400000       0.306811
      974.500000       0.302542
      974.600000       0.298322
      974.700000       0.294148
      974.800000       0.290026
      974.900000       0.285952
      975.000000       0.281921
      975.100000       0.277937
      975.200000       0.273993
      975.300000       0.270093
      975.400000       0.266233
      975.500000       0.262410
      975.600000       0.258627
      975.700000       0.254879
      975.800000       0.251170
      975.900000       0.247496
      976.000000       0.243855
      976.100000       0.240252
      976.200000       0.236680
      976.300000       0.233145
      976.400000       0.229644
      976.500000       0.226175
      976.600000       0.222743
      976.700000       0.219343
      976.800000       0.215979
      976.900000       0.212650
      977.000000       0.209353
      977.100000       0.206093
      977.200000       0.202865
      977.300000       0.199676
      977.400000       0.196522
      977.500000       0.193403
      977.600000       0.190324
      977.700000       0.187282
      977.800000       0.184281
      977.900000       0.181321
      978.000000       0.178401
      978.100000       0.175526
      978.200000       0.172695
      978.300000       0.169912
      978.400000       0.167178
      978.500000       0.164493
      978.600000       0.161861
      978.700000       0.159275
      978.800000       0.156735
      978.900000       0.154237
      979.000000       0.151777
      979.100000       0.149353
      979.200000       0.146962
      979.300000       0.144602
      979.400000       0.142270
      979.500000       0.139962
      979.600000       0.137679
      979.700000       0.135416
      979.800000       0.133172
      979.900000       0.130945
      980.000000       0.128731
      980.100000       0.126531
      980.200000       0.124340
      980.300000       0.122158
      980.400000       0.119983
      980.500000       0.117812
      980.600000       0.115648
      980.700000       0.113491
      980.800000       0.111345
      980.900000       0.109210
      981.000000       0.107087
      981.100000       0.104980
      981.200000       0.102888
      981.300000       0.100816
      981.400000       0.098764
      981.500000       0.096734
      981.600000       0.094729
      981.700000       0.092750
      981.800000       0.090800
      981.900000       0.088882
      982.000000       0.086996
      982.100000       0.085146
      982.200000       0.083335
      982.300000       0.081566
      982.400000       0.079841
      982.500000       0.078158
      982.600000       0.076516
      982.700000       0.074911
      982.800000       0.073344
      982.900000       0.071810
      983.000000       0.070308
      983.100000       0.068838
      983.200000       0.067395
      983.300000       0.065981
      983.400000       0.064593
      983.500000       0.063228
      983.600000       0.061887
      983.700000       0.060567
      983.800000       0.059268
      983.900000       0.057989
      984.000000       0.056728
      984.100000       0.055485
      984.200000       0.054258
      984.300000       0.053047
      984.400000       0.051851
      984.500000       0.050669
      984.600000       0.049503
      984.700000       0.048352
      984.800000       0.047217
      984.900000       0.046096
      985.000000       0.044991
      985.100000       0.043902
      985.200000       0.042828
      985.300000       0.041772
      985.400000       0.040732
      985.500000       0.039709
      985.600000       0.038704
      985.700000       0.037717
      985.800000       0.036749
      985.900000       0.035800
      986.000000       0.034871
      986.100000       0.033964
      986.200000       0.033078
      986.300000       0.032215
      986.400000       0.031374
      986.500000       0.030553
      986.600000       0.029753
      986.700000       0.028972
      986.800000       0.028211
      986.900000       0.027468
      987.000000       0.026742
      987.100000       0.026034
      987.200000       0.025343
      987.300000       0.024669
      987.400000       0.024012
      987.500000       0.023370
      987.600000       0.022745
      987.700000       0.022135
      987.800000       0.021541
      987.900000       0.020963
      988.000000       0.020401
      988.100000       0.019855
      988.200000       0.019325
      988.300000       0.018811
      988.400000       0.018311
      988.500000       0.017825
      988.600000       0.017353
      988.700000       0.016893
      988.800000       0.016445
      988.900000       0.016008
      989.000000       0.015582
      989.100000       0.015166
      989.200000       0.014760
      989.300000       0.014363
      989.400000       0.013974
      989.500000       0.013594
      989.600000       0.013222
      989.700000       0.012856
      989.800000       0.012499
      989.900000       0.012148
      990.000000       0.011803
      990.100000       0.011465
      990.200000       0.011132
      990.300000       0.010806
      990.400000       0.010486
      990.500000       0.010172
      990.600000       0.009865
      990.700000       0.009565
      990.800000       0.009272
      990.900000       0.008986
      991.000000       0.008709
      991.100000       0.008439
      991.200000       0.008178
      991.300000       0.007926
      991.400000       0.007683
      991.500000       0.007449
      991.600000       0.007226
      991.700000       0.007014
      991.800000       0.006813
      991.900000       0.006624
      992.000000       0.006447
      992.100000       0.006283
      992.200000       0.006132
      992.300000       0.005993
      992.400000       0.005863
      992.500000       0.005740
      992.600000       0.005624
      992.700000       0.005512
      992.800000       0.005403
      992.900000       0.005295
      993.000000       0.005187
      993.100000       0.005077
      993.200000       0.004963
      993.300000       0.004845
      993.400000       0.004719
      993.500000       0.004585
      993.600000       0.004440
      993.700000       0.004284
      993.800000       0.004114
      993.900000       0.003928
      994.000000       0.003725
      994.100000       0.003503
      994.200000       0.003263
      994.300000       0.003009
      994.400000       0.002742
      994.500000       0.002467
      994.600000       0.002186
      994.700000       0.001902
      994.800000       0.001618
      994.900000       0.001338
      995.000000       0.001063
      995.100000       0.000798
      995.200000       0.000545
      995.300000       0.000307
      995.400000       0.000088
      995.500000       0.000000
      995.600000       0.000000
      995.700000       0.000000
      995.800000       0.000000
      995.900000       0.000000
      996.000000       0.000000
      996.100000       0.000000
      996.200000       0.000000
      996.300000       0.000000
      996.400000       0.000000
      996.500000       0.000000
      996.600000       0.000000
      996.700000       0.000006
      996.800000       0.000187
      996.900000       0.000375
      997.000000       0.000567
      997.100000       0.000760
      997.200000       0.000949
      997.300000       0.001129
      997.400000       0.001297
      997.500000       0.001448
      997.600000       0.001579
      997.700000       0.001684
      997.800000       0.001760
      997.900000       0.001801
      998.000000       0.001804
      998.100000       0.001764
      998.200000       0.001685
      998.300000       0.001572
      998.400000       0.001428
      998.500000       0.001259
      998.600000       0.001068
      998.700000       0.000860
      998.800000       0.000639
      998.900000       0.000409
      999.000000       0.000174
      999.100000       0.000000
      999.200000       0.000000
      999.300000       0.000000
      999.400000       0.000000
      999.500000       0.000000
      999.600000       0.000000
      999.700000       0.000000
      999.800000       0.000000
      999.900000       0.000000
     1000.000000       0.000000
     1000.100000       0.000000
     1000.200000       0.000000
     1000.300000       0.000000
     1000.400000       0.000000
     1000.500000       0.000000
     1000.600000       0.000000
     1000.700000       0.000000
     1000.800000       0.000000
     1000.900000       0.000000
     1001.000000       0.000000
     1001.100000       0.000000
     1001.200000       0.000000
     1001.300000       0.000073
     1001.400000       0.000237
     1001.500000       0.000387
     1001.600000       0.000521
     1001.700000       0.000633
     1001.800000       0.000719
     1001.900000       0.000777
     1002.000000       0.000801
     1002.100000       0.000788
     1002.200000       0.000741
     1002.300000       0.000663
     1002.400000       0.000558
     1002.500000       0.000430
     1002.600000       0.000282
     1002.700000       0.000117
     1002.800000       0.000000
     1002.900000       0.000000
     1003.000000       0.000000
     1003.100000       0.000000
     1003.200000       0.000000
     1003.300000       0.000000
     1003.400000       0.000000
     1003.500000       0.000000
     1003.600000       0.000000
     1003.700000       0.000000
     1003.800000       0.000000
     1003.900000       0.000000
     1004.000000       0.000000
     1004.100000       0.000000
     1004.200000       0.000000
     1004.300000       0.000000
     1004.400000       0.000000
     1004.500000       0.000000
     1004.600000       0.000000
     1004.700000       0.000000
     1004.800000       0.000000
     1004.900000       0.000000
     1005.000000       0.000000
     1005.100000       0.000000
     1005.200000       0.000000
     1005.300000       0.000000
     1005.400000       0.000000
     1005.500000       0.000000
     1005.600000       0.000000
     1005.700000       0.000000
     1005.800000       0.000000
     1005.900000       0.000000
     1006.000000       0.000000
     1006.100000       0.000053
     1006.200000       0.000154
     1006.300000       0.000245
     1006.400000       0.000325
     1006.500000       0.000395
     1006.600000       0.000456
     1006.700000       0.000508
     1006.800000       0.000551
     1006.900000       0.000587
     1007.000000       0.000615
     1007.100000       0.000636
     1007.200000       0.000651
     1007.300000       0.000659
     1007.400000       0.000661
     1007.500000       0.000657
     1007.600000       0.000648
     1007.700000       0.000634
     1007.800000       0.000615
     1007.900000       0.000592
     1008.000000       0.000564
     1008.100000       0.000532
     1008.200000       0.000497
     1008.300000       0.000458
     1008.400000       0.000416
     1008.500000       0.000371
     1008.600000       0.000323
     1008.700000       0.000273
     1008.800000       0.000221
     1008.900000       0.000167
     1009.000000       0.000112
     1009.100000       0.000055
     1009.200000       0.000000
     1009.300000       0.000000
     1009.400000       0.000000
     1009.500000       0.000000
     1009.600000       0.000000
     1009.700000       0.000000
     1009.800000       0.000000
     1009.900000       0.000000
     1010.000000       0.000000
     1010.100000       0.000000
     1010.200000       0.000000
     1010.300000       0.000000
     1010.400000       0.000000
     1010.500000       0.000000
     1010.600000       0.000000
     1010.700000       0.000000
     1010.800000       0.000000
     1010.900000       0.000000
     1011.000000       0.000000
     1011.100000       0.000000
     1011.200000       0.000000
     1011.300000       0.000000
     1011.400000       0.000000
     1011.500000       0.000000
     1011.600000       0.000000
     1011.700000       0.000000
     1011.800000       0.000000
     1011.900000       0.000000
     1012.000000       0.000000
     1012.100000       0.000000
     1012.200000       0.000000
     1012.300000       0.000000
     1012.400000       0.000000
     1012.500000       0.000000
     1012.600000       0.000000
     1012.700000       0.000000
     1012.800000       0.000000
     1012.900000       0.000000
     1013.000000       0.000000
     1013.100000       0.000000
     1013.200000       0.000000
     1013.300000       0.000000
     1013.400000       0.000000
     1013.500000       0.000000
     1013.600000       0.000000
     1013.700000       0.000000
     1013.800000       0.000000
     1013.900000       0.000000
     1014.000000       0.000000
     1014.100000       0.000000
     1014.200000       0.000000
     1014.300000       0.000000
     1014.400000       0.000000
     1014.500000       0.000000
     1014.600000       0.000000
     1014.700000       0.000000
     1014.800000       0.000000
     1014.900000       0.000000
     1015.000000       0.000000
     1015.100000       0.000000
     1015.200000       0.000000
     1015.300000       0.000000
     1015.400000       0.000000
     1015.500000       0.000000
     1015.600000       0.000000
     1015.700000       0.000000
     1015.800000       0.000000
     1015.900000       0.000000
     1016.000000       0.000000
     1016.100000       0.000000
     1016.200000       0.000000
     1016.300000       0.000000
     1016.400000       0.000000
     1016.500000       0.000000
     1016.600000       0.000000
     1016.700000       0.000000
     1016.800000       0.000000
     1016.900000       0.000000
     1017.000000       0.000000
     1017.100000       0.000000
     1017.200000       0.000000
     1017.300000       0.000000
     1017.400000       0.000000
     1017.500000       0.000000
     1017.600000       0.000000
     1017.700000       0.000000
     1017.800000       0.000000
     1017.900000       0.000000
     1018.000000       0.000000
     1018.100000       0.000000
     1018.200000       0.000000
     1018.300000       0.000000
     1018.400000       0.000000
     1018.500000       0.000000
     1018.600000       0.000000
     1018.700000       0.000000
     1018.800000       0.000000
     1018.900000       0.000000
     1019.000000       0.000000
     1019.100000       0.000000
     1019.200000       0.000000
     1019.300000       0.000000
     1019.400000       0.000000
     1019.500000       0.000000
     1019.600000       0.000000
     1019.700000       0.000000
     1019.800000       0.000000
     1019.900000       0.000000
     1020.000000       0.000000
     1020.100000       0.000000
     1020.200000       0.000000
     1020.300000       0.000000
     1020.400000       0.000000
     1020.500000       0.000000
     1020.600000       0.000000
     1020.700000       0.000000
     1020.800000       0.000000
     1020.900000       0.000000
     1021.000000       0.000000
     1021.100000       0.000000
     1021.200000       0.000000
     1021.300000       0.000000
     1021.400000       0.000000
     1021.500000       0.000000
     1021.600000       0.000000
     1021.700000       0.000000
     1021.800000       0.000000
     1021.900000       0.000000
     1022.000000       0.000000
     1022.100000       0.000000
     1022.200000       0.000000
     1022.300000       0.000000
     1022.400000       0.000000
     1022.500000       0.000000
     1022.600000       0.000000
     1022.700000       0.000000
     1022.800000       0.000000
     1022.900000       0.000000
     1023.000000       0.000000
     1023.100000       0.000000
     1023.200000       0.000000
     1023.300000       0.000000
     1023.400000       0.000000
     1023.500000       0.000000
     1023.600000       0.000000
     1023.700000       0.000000
     1023.800000       0.000000
     1023.900000       0.000000
     1024.000000       0.000000
     1024.100000       0.000000
     1024.200000       0.000000
     1024.300000       0.000000
     1024.400000       0.000000
     1024.500000       0.000000
     1024.600000       0.000000
     1024.700000       0.000000
     1024.800000       0.000000
     1024.900000       0.000000
     1025.000000       0.000000
     1025.100000       0.000000
     1025.200000       0.000000
     1025.300000       0.000000
     1025.400000       0.000000
     1025.500000       0.000000
     1025.600000       0.000000
     1025.700000       0.000000
     1025.800000       0.000000
     1025.900000       0.000000
     1026.000000       0.000000
     1026.100000       0.000000
     1026.200000       0.000000
     1026.300000       0.000000
     1026.400000       0.000000
     1026.500000       0.000000
     1026.600000       0.000000
     1026.700000       0.000000
     1026.800000       0.000000
     1026.900000       0.000000
     1027.000000       0.000000
     1027.100000       0.000000
     1027.200000       0.000000
     1027.300000       0.000000
     1027.400000       0.000000
     1027.500000       0.000000
     1027.600000       0.000000
     1027.700000       0.000000
     1027.800000       0.000000
     1027.900000       0.000000
     1028.000000       0.000000
     1028.100000       0.000000
     1028.200000       0.000000
     1028.300000       0.000000
     1028.400000       0.000000
     1028.500000       0.000000
     1028.600000       0.000000
     1028.700000       0.000000
     1028.800000       0.000000
     1028.900000       0.000000
     1029.000000       0.000000
     1029.100000       0.000000
     1029.200000       0.000000
     1029.300000       0.000000
     1029.400000       0.000000
     1029.500000       0.000000
     1029.600000       0.000000
     1029.700000       0.000000
     1029.800000       0.000000
     1029.900000       0.000000
     1030.000000       0.000000
     1030.100000       0.000000
     1030.200000       0.000000
     1030.300000       0.000000
     1030.400000       0.000000
     1030.500000       0.000000
     1030.600000       0.000000
     1030.700000       0.000000
     1030.800000       0.000000
     1030.900000       0.000000
     1031.000000       0.000000
     1031.100000       0.000000
     1031.200000       0.000000
     1031.300000       0.000000
     1031.400000       0.000000
     1031.500000       0.000000
     1031.600000       0.000000
     1031.700000       0.000000
     1031.800000       0.000000
     1031.900000       0.000000
     1032.000000       0.000000
     1032.100000       0.000000
     1032.200000       0.000000
     1032.300000       0.000000
     1032.400000       0.000000
     1032.500000       0.000000
     1032.600000       0.000000
     1032.700000       0.000000
     1032.800000       0.000000
     1032.900000       0.000000
     1033.000000       0.000000
     1033.100000       0.000000
     1033.200000       0.000000
     1033.300000       0.000000
     1033.400000       0.000000
     1033.500000       0.000000
     1033.600000       0.000015
     1033.700000       0.000262
     1033.800000       0.000518
     1033.900000       0.000780
     1034.000000       0.001045
     1034.100000       0.001311
     1034.200000       0.001573
     1034.300000       0.001830
     1034.400000       0.002078
     1034.500000       0.002314
     1034.600000       0.002535
     1034.700000       0.002737
     1034.800000       0.002919
     1034.900000       0.003076
     1035.000000       0.003205
     1035.100000       0.003303
     1035.200000       0.003366
     1035.300000       0.003393
     1035.400000       0.003384
     1035.500000       0.003344
     1035.600000       0.003277
     1035.700000       0.003186
     1035.800000       0.003073
     1035.900000       0.002942
     1036.000000       0.002797
     1036.100000       0.002640
     1036.200000       0.002475
     1036.300000       0.002303
     1036.400000       0.002129
     1036.500000       0.001955
     1036.600000       0.001785
     1036.700000       0.001621
     1036.800000       0.001466
     1036.900000       0.001323
     1037.000000       0.001196
     1037.100000       0.001088
     1037.200000       0.001001
     1037.300000       0.000939
     1037.400000       0.000905
     1037.500000       0.000900
     1037.600000       0.000919
     1037.700000       0.000960
     1037.800000       0.001020
     1037.900000       0.001096
     1038.000000       0.001185
     1038.100000       0.001284
     1038.200000       0.001391
     1038.300000       0.001502
     1038.400000       0.001615
     1038.500000       0.001728
     1038.600000       0.001836
     1038.700000       0.001939
     1038.800000       0.002032
     1038.900000       0.002113
     1039.000000       0.002179
     1039.100000       0.002227
     1039.200000       0.002254
     1039.300000       0.002258
     1039.400000       0.002235
     1039.500000       0.002181
     1039.600000       0.002096
     1039.700000       0.001979
     1039.800000       0.001835
     1039.900000       0.001666
     1040.000000       0.001476
     1040.100000       0.001265
     1040.200000       0.001038
     1040.300000       0.000797
     1040.400000       0.000543
     1040.500000       0.000280
     1040.600000       0.000011
     1040.700000       0.000000
     1040.800000       0.000000
     1040.900000       0.000000
     1041.000000       0.000000
     1041.100000       0.000000
     1041.200000       0.000000
     1041.300000       0.000000
     1041.400000       0.000000
     1041.500000       0.000000
     1041.600000       0.000000
     1041.700000       0.000000
     1041.800000       0.000000
     1041.900000       0.000000
     1042.000000       0.000000
     1042.100000       0.000000
     1042.200000       0.000000
     1042.300000       0.000000
     1042.400000       0.000000
     1042.500000       0.000000
     1042.600000       0.000000
     1042.700000       0.000000
     1042.800000       0.000000
     1042.900000       0.000000
     1043.000000       0.000000
     1043.100000       0.000000
     1043.200000       0.000000
     1043.300000       0.000000
     1043.400000       0.000000
     1043.500000       0.000000
     1043.600000       0.000000
     1043.700000       0.000000
     1043.800000       0.000000
     1043.900000       0.000000
     1044.000000       0.000000
     1044.100000       0.000000
     1044.200000       0.000000
     1044.300000       0.000000
     1044.400000       0.000000
     1044.500000       0.000000
     1044.600000       0.000000
     1044.700000       0.000000
     1044.800000       0.000000
     1044.900000       0.000000
     1045.000000       0.000024
     1045.100000       0.000261
     1045.200000       0.000494
     1045.300000       0.000721
     1045.400000       0.000940
     1045.500000       0.001149
     1045.600000       0.001347
     1045.700000       0.001533
     1045.800000       0.001705
     1045.900000       0.001860
     1046.000000       0.001998
     1046.100000       0.002116
     1046.200000       0.002215
     1046.300000       0.002297
     1046.400000       0.002362
     1046.500000       0.002413
     1046.600000       0.002450
     1046.700000       0.002474
     1046.800000       0.002488
     1046.900000       0.002491
     1047.000000       0.002486
     1047.100000       0.002473
     1047.200000       0.002453
     1047.300000       0.002428
     1047.400000       0.002398
     1047.500000       0.002365
     1047.600000       0.002329
     1047.700000       0.002292
     1047.800000       0.002254
     1047.900000       0.002217
     1048.000000       0.002182
     1048.100000       0.002149
     1048.200000       0.002120
     1048.300000       0.002095
     1048.400000       0.002075
     1048.500000       0.002059
     1048.600000       0.002047
     1048.700000       0.002038
     1048.800000       0.002032
     1048.900000       0.002028
     1049.000000       0.002027
     1049.100000       0.002028
     1049.200000       0.002030
     1049.300000       0.002034
     1049.400000       0.002038
     1049.500000       0.002043
     1049.600000       0.002048
     1049.700000       0.002054
     1049.800000       0.002058
     1049.900000       0.002062
     1050.000000       0.002065
     1050.100000       0.002067
     1050.200000       0.002067
     1050.300000       0.002064
     1050.400000       0.002060
     1050.500000       0.002052
     1050.600000       0.002042
     1050.700000       0.002028
     1050.800000       0.002011
     1050.900000       0.001989
     1051.000000       0.001964
     1051.100000       0.001935
     1051.200000       0.001901
     1051.300000       0.001862
     1051.400000       0.001818
     1051.500000       0.001768
     1051.600000       0.001713
     1051.700000       0.001651
     1051.800000       0.001582
     1051.900000       0.001507
     1052.000000       0.001423
     1052.100000       0.001332
     1052.200000       0.001233
     1052.300000       0.001124
     1052.400000       0.001006
     1052.500000       0.000877
     1052.600000       0.000738
     1052.700000       0.000588
     1052.800000       0.000427
     1052.900000       0.000258
     1053.000000       0.000081
     1053.100000       0.000000
     1053.200000       0.000000
     1053.300000       0.000000
     1053.400000       0.000000
     1053.500000       0.000000
     1053.600000       0.000000
     1053.700000       0.000000
     1053.800000       0.000000
     1053.900000       0.000000
     1054.000000       0.000000
     1054.100000       0.000000
     1054.200000       0.000000
     1054.300000       0.000000
     1054.400000       0.000000
     1054.500000       0.000000
     1054.600000       0.000000
     1054.700000       0.000000
     1054.800000       0.000000
     1054.900000       0.000000
     1055.000000       0.000000
     1055.100000       0.000000
     1055.200000       0.000000
     1055.300000       0.000000
     1055.400000       0.000000
     1055.500000       0.000000
     1055.600000       0.000000
     1055.700000       0.000000
     1055.800000       0.000000
     1055.900000       0.000000
     1056.000000       0.000000
     1056.100000       0.000000
     1056.200000       0.000000
     1056.300000       0.000000
     1056.400000       0.000000
     1056.500000       0.000000
     1056.600000       0.000000
     1056.700000       0.000000
     1056.800000       0.000000
     1056.900000       0.000000
     1057.000000       0.000000
     1057.100000       0.000000
     1057.200000       0.000000
     1057.300000       0.000041
     1057.400000       0.000131
     1057.500000       0.000213
     1057.600000       0.000287
