10,    channel 10 SRF extracted from SRF_FY-4A_AGRI.zip (8.0.txt) (received April 2018)
Number of data points:
488
Wavenumber (cm-1)   Filter response
     1003.713700       0.025935
     1004.217700       0.019654
     1004.722200       0.024922
     1005.227200       0.015901
     1005.732700       0.018200
     1006.238700       0.029739
     1006.745200       0.024569
     1007.252200       0.018707
     1007.759800       0.024094
     1008.267800       0.021208
     1008.776400       0.026349
     1009.285400       0.019261
     1009.795000       0.015889
     1010.305100       0.023934
     1010.815700       0.021873
     1011.326900       0.032014
     1011.838500       0.016146
     1012.350700       0.025507
     1012.863400       0.022456
     1013.376600       0.017976
     1013.890300       0.027098
     1014.404500       0.020597
     1014.919300       0.022947
     1015.434600       0.029291
     1015.950400       0.030583
     1016.466800       0.024502
     1016.983600       0.027960
     1017.501000       0.028294
     1018.018900       0.024406
     1018.537400       0.023143
     1019.056400       0.018430
     1019.575900       0.026228
     1020.095900       0.028227
     1020.616500       0.032421
     1021.137500       0.025516
     1021.659200       0.024307
     1022.181300       0.018049
     1022.704000       0.015845
     1023.227300       0.033522
     1023.751000       0.016700
     1024.275300       0.013842
     1024.800200       0.027765
     1025.325500       0.020956
     1025.851500       0.024695
     1026.377900       0.024268
     1026.904900       0.030200
     1027.432400       0.032302
     1027.960500       0.026340
     1028.489100       0.020261
     1029.018300       0.036270
     1029.548000       0.029919
     1030.078300       0.024254
     1030.609100       0.027885
     1031.140400       0.027408
     1031.672300       0.023868
     1032.204800       0.027632
     1032.737800       0.025186
     1033.271300       0.025732
     1033.805400       0.022546
     1034.340100       0.030736
     1034.875300       0.025008
     1035.411100       0.031527
     1035.947400       0.031727
     1036.484200       0.024041
     1037.021700       0.031231
     1037.559700       0.024953
     1038.098200       0.026992
     1038.637300       0.029641
     1039.177000       0.017439
     1039.717200       0.025873
     1040.258000       0.028389
     1040.799300       0.032475
     1041.341200       0.026058
     1041.883700       0.033916
     1042.426800       0.027995
     1042.970400       0.027411
     1043.514600       0.021621
     1044.059300       0.033182
     1044.604600       0.036840
     1045.150500       0.021156
     1045.697000       0.037621
     1046.244000       0.031573
     1046.791600       0.028118
     1047.339800       0.030294
     1047.888500       0.037480
     1048.437800       0.034982
     1048.987700       0.040395
     1049.538200       0.035011
     1050.089300       0.032054
     1050.640900       0.038178
     1051.193100       0.031995
     1051.745900       0.035396
     1052.299300       0.038124
     1052.853200       0.035736
     1053.407800       0.044040
     1053.962900       0.045602
     1054.518600       0.045209
     1055.074900       0.043487
     1055.631800       0.037546
     1056.189300       0.043059
     1056.747300       0.033402
     1057.306000       0.056125
     1057.865200       0.050401
     1058.425100       0.051846
     1058.985500       0.052661
     1059.546500       0.048664
     1060.108100       0.058449
     1060.670300       0.053864
     1061.233200       0.046551
     1061.796600       0.050988
     1062.360600       0.050011
     1062.925200       0.046715
     1063.490400       0.052392
     1064.056200       0.057090
     1064.622600       0.054135
     1065.189600       0.054834
     1065.757200       0.057515
     1066.325400       0.050537
     1066.894300       0.061875
     1067.463700       0.066303
     1068.033700       0.063507
     1068.604400       0.072103
     1069.175700       0.076245
     1069.747500       0.069101
     1070.320000       0.064857
     1070.893100       0.058509
     1071.466800       0.080636
     1072.041200       0.077603
     1072.616100       0.077013
     1073.191700       0.077614
     1073.767900       0.073186
     1074.344600       0.077412
     1074.922100       0.073242
     1075.500100       0.071356
     1076.078800       0.086108
     1076.658100       0.093529
     1077.238000       0.094354
     1077.818500       0.086484
     1078.399700       0.113816
     1078.981400       0.101866
     1079.563900       0.105425
     1080.146900       0.113475
     1080.730600       0.108903
     1081.314900       0.121477
     1081.899800       0.126388
     1082.485400       0.115860
     1083.071600       0.122639
     1083.658400       0.135971
     1084.245900       0.127703
     1084.834000       0.139890
     1085.422800       0.140563
     1086.012200       0.150965
     1086.602200       0.153787
     1087.192900       0.157888
     1087.784200       0.163271
     1088.376100       0.151488
     1088.968700       0.169146
     1089.562000       0.163958
     1090.155900       0.189954
     1090.750400       0.167296
     1091.345600       0.191922
     1091.941500       0.206854
     1092.538000       0.214740
     1093.135100       0.217525
     1093.732900       0.210884
     1094.331400       0.243818
     1094.930500       0.246536
     1095.530200       0.248265
     1096.130700       0.243599
     1096.731700       0.260817
     1097.333500       0.261093
     1097.935900       0.281573
     1098.538900       0.289535
     1099.142700       0.285527
     1099.747100       0.283974
     1100.352100       0.307177
     1100.957800       0.315593
     1101.564200       0.330295
     1102.171300       0.340073
     1102.779000       0.341819
     1103.387400       0.372059
     1103.996500       0.366242
     1104.606200       0.370143
     1105.216600       0.388006
     1105.827700       0.388536
     1106.439500       0.415135
     1107.051900       0.418956
     1107.665000       0.437903
     1108.278800       0.450500
     1108.893300       0.448465
     1109.508500       0.471294
     1110.124300       0.491776
     1110.740900       0.507299
     1111.358100       0.509514
     1111.976000       0.513874
     1112.594600       0.511093
     1113.213800       0.539568
     1113.833800       0.545689
     1114.454500       0.570629
     1115.075800       0.586953
     1115.697900       0.596340
     1116.320600       0.612370
     1116.944000       0.626823
     1117.568200       0.651470
     1118.193000       0.635074
     1118.818500       0.655749
     1119.444800       0.675902
     1120.071700       0.669489
     1120.699300       0.701536
     1121.327700       0.695487
     1121.956700       0.700774
     1122.586400       0.698443
     1123.216900       0.725003
     1123.848100       0.748057
     1124.479900       0.756567
     1125.112500       0.739269
     1125.745800       0.751218
     1126.379800       0.764114
     1127.014500       0.752588
     1127.650000       0.762497
     1128.286100       0.773010
     1128.923000       0.770067
     1129.560600       0.809840
     1130.198900       0.806122
     1130.838000       0.825020
     1131.477700       0.831524
     1132.118200       0.828047
     1132.759400       0.826298
     1133.401300       0.846118
     1134.044000       0.849127
     1134.687400       0.857779
     1135.331500       0.861100
     1135.976400       0.860113
     1136.622000       0.857429
     1137.268300       0.861494
     1137.915300       0.867968
     1138.563100       0.865093
     1139.211700       0.872046
     1139.860900       0.874339
     1140.510900       0.883132
     1141.161700       0.880729
     1141.813200       0.876436
     1142.465400       0.890863
     1143.118400       0.890840
     1143.772200       0.905721
     1144.426600       0.895053
     1145.081900       0.892967
     1145.737900       0.911759
     1146.394600       0.907191
     1147.052100       0.922555
     1147.710300       0.917780
     1148.369300       0.921780
     1149.029100       0.953051
     1149.689600       0.932606
     1150.350900       0.937338
     1151.012900       0.943618
     1151.675700       0.929513
     1152.339200       0.944625
     1153.003600       0.948011
     1153.668700       0.958742
     1154.334500       0.951443
     1155.001200       0.954533
     1155.668600       0.957729
     1156.336700       0.963129
     1157.005700       0.963961
     1157.675400       0.958096
     1158.345900       0.968794
     1159.017200       0.979860
     1159.689200       0.985270
     1160.362000       0.981557
     1161.035600       1.000000
     1161.710000       0.993173
     1162.385200       0.996611
     1163.061200       0.992327
     1163.737900       0.968582
     1164.415500       0.959584
     1165.093800       0.939420
     1165.772900       0.931595
     1166.452800       0.919207
     1167.133500       0.936661
     1167.815000       0.961758
     1168.497300       0.967065
     1169.180400       0.978897
     1169.864300       0.971021
     1170.549000       0.970442
     1171.234500       0.972095
     1171.920800       0.976784
     1172.607900       0.981832
     1173.295800       0.981335
     1173.984500       0.979093
     1174.674000       0.978398
     1175.364400       0.972390
     1176.055500       0.968072
     1176.747500       0.937026
     1177.440200       0.922465
     1178.133800       0.924663
     1178.828200       0.925982
     1179.523500       0.950256
     1180.219500       0.958490
     1180.916400       0.981279
     1181.614100       0.968519
     1182.312600       0.967491
     1183.011900       0.959475
     1183.712100       0.959301
     1184.413100       0.974840
     1185.115000       0.964566
     1185.817600       0.964264
     1186.521100       0.961905
     1187.225500       0.967100
     1187.930600       0.951959
     1188.636600       0.933872
     1189.343500       0.947196
     1190.051200       0.929825
     1190.759700       0.942548
     1191.469100       0.940011
     1192.179300       0.950454
     1192.890400       0.933602
     1193.602300       0.916692
     1194.315100       0.935063
     1195.028700       0.914924
     1195.743200       0.896541
     1196.458500       0.901542
     1197.174700       0.913120
     1197.891700       0.898213
     1198.609600       0.885177
     1199.328400       0.882482
     1200.048000       0.882009
     1200.768500       0.840300
     1201.489800       0.814288
     1202.212100       0.803076
     1202.935200       0.786106
     1203.659100       0.786263
     1204.384000       0.792013
     1205.109700       0.796235
     1205.836200       0.787601
     1206.563700       0.770620
     1207.292000       0.753211
     1208.021300       0.739780
     1208.751400       0.726233
     1209.482300       0.711045
     1210.214200       0.697646
     1210.947000       0.678347
     1211.680600       0.672606
     1212.415100       0.651461
     1213.150600       0.636385
     1213.886900       0.606379
     1214.624100       0.567089
     1215.362200       0.539890
     1216.101200       0.544291
     1216.841100       0.509279
     1217.581900       0.504333
     1218.323600       0.506730
     1219.066200       0.478590
     1219.809700       0.471047
     1220.554100       0.447455
     1221.299500       0.422387
     1222.045700       0.416105
     1222.792900       0.395245
     1223.540900       0.381362
     1224.289900       0.374425
     1225.039800       0.359207
     1225.790600       0.332278
     1226.542400       0.315122
     1227.295000       0.298981
     1228.048600       0.285711
     1228.803100       0.277522
     1229.558600       0.271932
     1230.315000       0.264115
     1231.072300       0.248603
     1231.830500       0.241884
     1232.589700       0.238664
     1233.349800       0.224406
     1234.110800       0.212422
     1234.872800       0.206226
     1235.635700       0.193021
     1236.399600       0.195923
     1237.164400       0.206770
     1237.930200       0.200740
     1238.696900       0.185940
     1239.464600       0.182310
     1240.233200       0.176476
     1241.002700       0.170247
     1241.773300       0.166943
     1242.544700       0.162700
     1243.317200       0.157706
     1244.090600       0.163217
     1244.864900       0.154705
     1245.640300       0.149175
     1246.416600       0.159099
     1247.193800       0.145825
     1247.972000       0.130536
     1248.751200       0.122931
     1249.531400       0.113493
     1250.312600       0.110073
     1251.094700       0.106120
     1251.877800       0.099351
     1252.661900       0.100333
     1253.447000       0.102994
     1254.233000       0.104687
     1255.020100       0.095061
     1255.808100       0.088156
     1256.597100       0.086410
     1257.387100       0.082738
     1258.178200       0.069159
     1258.970200       0.052588
     1259.763200       0.064287
     1260.557200       0.052468
     1261.352200       0.041099
     1262.148200       0.040071
     1262.945200       0.055358
     1263.743200       0.060153
     1264.542200       0.052687
     1265.342300       0.058111
     1266.143300       0.047523
     1266.945400       0.044242
     1267.748500       0.038601
     1268.552600       0.046886
     1269.357700       0.047640
     1270.163900       0.041985
     1270.971000       0.038818
     1271.779200       0.037802
     1272.588400       0.030230
     1273.398700       0.031606
     1274.210000       0.030120
     1275.022300       0.025563
     1275.835700       0.024643
     1276.650100       0.024592
     1277.465500       0.027874
     1278.282000       0.015677
     1279.099500       0.022947
     1279.918100       0.010600
     1280.737700       0.023015
     1281.558400       0.025829
     1282.380100       0.014018
     1283.202900       0.020101
     1284.026700       0.015351
     1284.851600       0.016528
     1285.677600       0.018644
     1286.504600       0.018597
     1287.332600       0.022841
     1288.161800       0.017371
     1288.992000       0.011515
     1289.823300       0.012048
     1290.655700       0.011008
     1291.489100       0.014445
     1292.323600       0.010483
     1293.159200       0.015998
     1293.995900       0.024262
     1294.833600       0.022681
     1295.672500       0.020560
     1296.512400       0.007021
     1297.353400       0.011295
     1298.195500       0.016465
     1299.038700       0.013269
     1299.883000       0.020538
     1300.728400       0.021870
     1301.574900       0.006542
     1302.422500       0.013397
     1303.271200       0.022221
     1304.121000       0.020774
     1304.971900       0.019580
     1305.824000       0.015715
     1306.677100       0.010290
     1307.531400       0.012702
     1308.386800       0.004572
     1309.243300       0.008116
     1310.100900       0.014072
     1310.959600       0.019545
     1311.819500       0.009297
     1312.680500       0.006022
     1313.542600       0.016215
     1314.405900       0.016233
     1315.270300       0.012954
     1316.135800       0.014344
     1317.002500       0.020714
     1317.870300       0.018185
     1318.739300       0.016144
     1319.609400       0.010214
     1320.480700       0.010967
     1321.353100       0.028892
     1322.226600       0.035804
     1323.101300       0.026702
     1323.977200       0.032918
     1324.854300       0.015467
     1325.732500       0.015482
     1326.611800       0.014224
     1327.492400       0.011706
     1328.374100       0.007623
