   7, extracted from file vas_g07.srf.nc
Number of data points:
478
Wavenumber (cm-1)   Filter response
      765.300000       0.001814
      765.400000       0.001968
      765.500000       0.002122
      765.600000       0.002275
      765.700000       0.002429
      765.800000       0.002583
      765.900000       0.002736
      766.000000       0.002890
      766.100000       0.003043
      766.200000       0.003196
      766.300000       0.003350
      766.400000       0.003514
      766.500000       0.003685
      766.600000       0.003855
      766.700000       0.004025
      766.800000       0.004196
      766.900000       0.004361
      767.000000       0.004498
      767.100000       0.004614
      767.200000       0.004733
      767.300000       0.004852
      767.400000       0.004972
      767.500000       0.005088
      767.600000       0.005194
      767.700000       0.005295
      767.800000       0.005397
      767.900000       0.005499
      768.000000       0.005601
      768.100000       0.005703
      768.200000       0.005804
      768.300000       0.005906
      768.400000       0.006008
      768.500000       0.006109
      768.600000       0.006211
      768.700000       0.006313
      768.800000       0.006414
      768.900000       0.006516
      769.000000       0.006617
      769.100000       0.006718
      769.200000       0.006821
      769.300000       0.006916
      769.400000       0.007003
      769.500000       0.007087
      769.600000       0.007172
      769.700000       0.007256
      769.800000       0.007340
      769.900000       0.007430
      770.000000       0.007531
      770.100000       0.007632
      770.200000       0.007733
      770.300000       0.007834
      770.400000       0.007894
      770.500000       0.008320
      770.600000       0.009191
      770.700000       0.010091
      770.800000       0.010984
      770.900000       0.011879
      771.000000       0.012814
      771.100000       0.013368
      771.200000       0.013497
      771.300000       0.013627
      771.400000       0.013761
      771.500000       0.013896
      771.600000       0.014003
      771.700000       0.014352
      771.800000       0.014955
      771.900000       0.015545
      772.000000       0.016133
      772.100000       0.016720
      772.200000       0.017282
      772.300000       0.018069
      772.400000       0.019083
      772.500000       0.020071
      772.600000       0.021060
      772.700000       0.022048
      772.800000       0.023000
      772.900000       0.024387
      773.000000       0.026190
      773.100000       0.027947
      773.200000       0.029704
      773.300000       0.031458
      773.400000       0.033191
      773.500000       0.035362
      773.600000       0.037947
      773.700000       0.040486
      773.800000       0.043025
      773.900000       0.045569
      774.000000       0.048113
      774.100000       0.050551
      774.200000       0.052892
      774.300000       0.055243
      774.400000       0.057599
      774.500000       0.059944
      774.600000       0.062261
      774.700000       0.065364
      774.800000       0.069193
      774.900000       0.072947
      775.000000       0.076694
      775.100000       0.080435
      775.200000       0.084140
      775.300000       0.088757
      775.400000       0.094230
      775.500000       0.099598
      775.600000       0.104968
      775.700000       0.110330
      775.800000       0.115615
      775.900000       0.122252
      776.000000       0.130147
      776.100000       0.137901
      776.200000       0.145655
      776.300000       0.153404
      776.400000       0.161068
      776.500000       0.169923
      776.600000       0.179950
      776.700000       0.189847
      776.800000       0.199741
      776.900000       0.209653
      777.000000       0.219280
      777.100000       0.231314
      777.200000       0.245765
      777.300000       0.259964
      777.400000       0.274186
      777.500000       0.288384
      777.600000       0.302439
      777.700000       0.317792
      777.800000       0.334522
      777.900000       0.351201
      778.000000       0.367844
      778.100000       0.384489
      778.200000       0.401018
      778.300000       0.418585
      778.400000       0.437350
      778.500000       0.456083
      778.600000       0.474807
      778.700000       0.493531
      778.800000       0.512196
      778.900000       0.531379
      779.000000       0.551119
      779.100000       0.570902
      779.200000       0.590674
      779.300000       0.610443
      779.400000       0.630347
      779.500000       0.649337
      779.600000       0.667144
      779.700000       0.684782
      779.800000       0.702447
      779.900000       0.720141
      780.000000       0.737996
      780.100000       0.754229
      780.200000       0.767993
      780.300000       0.781176
      780.400000       0.794467
      780.500000       0.807735
      780.600000       0.821206
      780.700000       0.833012
      780.800000       0.841822
      780.900000       0.849654
      781.000000       0.857606
      781.100000       0.865559
      781.200000       0.873637
      781.300000       0.880709
      781.400000       0.885546
      781.500000       0.889383
      781.600000       0.893345
      781.700000       0.897307
      781.800000       0.901349
      781.900000       0.904795
      782.000000       0.906404
      782.100000       0.906984
      782.200000       0.907686
      782.300000       0.908389
      782.400000       0.909104
      782.500000       0.909748
      782.600000       0.910033
      782.700000       0.910069
      782.800000       0.910134
      782.900000       0.910199
      783.000000       0.910268
      783.100000       0.910326
      783.200000       0.910192
      783.300000       0.909896
      783.400000       0.909619
      783.500000       0.909342
      783.600000       0.909065
      783.700000       0.908759
      783.800000       0.908738
      783.900000       0.908997
      784.000000       0.909225
      784.100000       0.909452
      784.200000       0.909680
      784.300000       0.909900
      784.400000       0.910184
      784.500000       0.910540
      784.600000       0.910898
      784.700000       0.911255
      784.800000       0.911613
      784.900000       0.911902
      785.000000       0.912782
      785.100000       0.914539
      785.200000       0.916480
      785.300000       0.918393
      785.400000       0.920310
      785.500000       0.922217
      785.600000       0.924172
      785.700000       0.926228
      785.800000       0.928322
      785.900000       0.930415
      786.000000       0.932504
      786.100000       0.934609
      786.200000       0.936596
      786.300000       0.938179
      786.400000       0.939527
      786.500000       0.940901
      786.600000       0.942275
      786.700000       0.943641
      786.800000       0.945043
      786.900000       0.946846
      787.000000       0.948965
      787.100000       0.951048
      787.200000       0.953130
      787.300000       0.955212
      787.400000       0.957336
      787.500000       0.959116
      787.600000       0.960548
      787.700000       0.962013
      787.800000       0.963480
      787.900000       0.964948
      788.000000       0.966457
      788.100000       0.967595
      788.200000       0.968244
      788.300000       0.968827
      788.400000       0.969423
      788.500000       0.970019
      788.600000       0.970629
      788.700000       0.971117
      788.800000       0.971370
      788.900000       0.971536
      789.000000       0.971712
      789.100000       0.971889
      789.200000       0.972063
      789.300000       0.972252
      789.400000       0.972496
      789.500000       0.972773
      789.600000       0.973045
      789.700000       0.973318
      789.800000       0.973591
      789.900000       0.973865
      790.000000       0.974057
      790.100000       0.974177
      790.200000       0.974305
      790.300000       0.974433
      790.400000       0.974561
      790.500000       0.974702
      790.600000       0.974728
      790.700000       0.974621
      790.800000       0.974507
      790.900000       0.974394
      791.000000       0.974282
      791.100000       0.974159
      791.200000       0.974132
      791.300000       0.974275
      791.400000       0.974475
      791.500000       0.974666
      791.600000       0.974858
      791.700000       0.975049
      791.800000       0.975245
      791.900000       0.975458
      792.000000       0.975683
      792.100000       0.975906
      792.200000       0.976130
      792.300000       0.976350
      792.400000       0.976559
      792.500000       0.977151
      792.600000       0.978097
      792.700000       0.979005
      792.800000       0.979912
      792.900000       0.980820
      793.000000       0.981703
      793.100000       0.982797
      793.200000       0.984167
      793.300000       0.985572
      793.400000       0.986973
      793.500000       0.988371
      793.600000       0.989788
      793.700000       0.991050
      793.800000       0.991952
      793.900000       0.992695
      794.000000       0.993456
      794.100000       0.994218
      794.200000       0.994980
      794.300000       0.995738
      794.400000       0.996451
      794.500000       0.997128
      794.600000       0.997809
      794.700000       0.998491
      794.800000       0.999172
      794.900000       0.999932
      795.000000       1.000000
      795.100000       0.999266
      795.200000       0.998512
      795.300000       0.997768
      795.400000       0.997025
      795.500000       0.996392
      795.600000       0.994861
      795.700000       0.991549
      795.800000       0.987544
      795.900000       0.983622
      796.000000       0.979706
      796.100000       0.975856
      796.200000       0.971649
      796.300000       0.964693
      796.400000       0.955643
      796.500000       0.946847
      796.600000       0.938049
      796.700000       0.929252
      796.800000       0.920712
      796.900000       0.909882
      797.000000       0.896433
      797.100000       0.882911
      797.200000       0.869425
      797.300000       0.855941
      797.400000       0.842579
      797.500000       0.828070
      797.600000       0.811048
      797.700000       0.792972
      797.800000       0.775031
      797.900000       0.757061
      798.000000       0.739135
      798.100000       0.721152
      798.200000       0.702295
      798.300000       0.682716
      798.400000       0.663186
      798.500000       0.643688
      798.600000       0.624189
      798.700000       0.604711
      798.800000       0.585041
      798.900000       0.565083
      799.000000       0.545124
      799.100000       0.525168
      799.200000       0.505211
      799.300000       0.485185
      799.400000       0.465677
      799.500000       0.447866
      799.600000       0.430983
      799.700000       0.413989
      799.800000       0.396997
      799.900000       0.379977
      800.000000       0.362783
      800.100000       0.347409
      800.200000       0.333853
      800.300000       0.320097
      800.400000       0.306319
      800.500000       0.292563
      800.600000       0.278666
      800.700000       0.265930
      800.800000       0.255309
      800.900000       0.245382
      801.000000       0.235377
      801.100000       0.225370
      801.200000       0.215339
      801.300000       0.205421
      801.400000       0.196739
      801.500000       0.189073
      801.600000       0.181292
      801.700000       0.173510
      801.800000       0.165730
      801.900000       0.157853
      802.000000       0.150718
      802.100000       0.144586
      802.200000       0.138615
      802.300000       0.132618
      802.400000       0.126611
      802.500000       0.120576
      802.600000       0.114801
      802.700000       0.110094
      802.800000       0.106080
      802.900000       0.101978
      803.000000       0.097882
      803.100000       0.093786
      803.200000       0.089651
      803.300000       0.085858
      803.400000       0.082456
      803.500000       0.079070
      803.600000       0.075678
      803.700000       0.072287
      803.800000       0.068870
      803.900000       0.065640
      804.000000       0.062957
      804.100000       0.060564
      804.200000       0.058136
      804.300000       0.055709
      804.400000       0.053278
      804.500000       0.050800
      804.600000       0.048775
      804.700000       0.047228
      804.800000       0.045657
      804.900000       0.044079
      805.000000       0.042505
      805.100000       0.040916
      805.200000       0.039439
      805.300000       0.038232
      805.400000       0.037151
      805.500000       0.036058
      805.600000       0.034964
      805.700000       0.033870
      805.800000       0.032773
      805.900000       0.031700
      806.000000       0.030656
      806.100000       0.029609
      806.200000       0.028563
      806.300000       0.027516
      806.400000       0.026469
      806.500000       0.025413
      806.600000       0.024332
      806.700000       0.023240
      806.800000       0.022149
      806.900000       0.021057
      807.000000       0.019966
      807.100000       0.018850
      807.200000       0.017955
      807.300000       0.017285
      807.400000       0.016595
      807.500000       0.015905
      807.600000       0.015214
      807.700000       0.014524
      807.800000       0.013837
      807.900000       0.013158
      808.000000       0.012485
      808.100000       0.011811
      808.200000       0.011137
      808.300000       0.010463
      808.400000       0.009790
      808.500000       0.009096
      808.600000       0.008376
      808.700000       0.007657
      808.800000       0.006939
      808.900000       0.006219
      809.000000       0.005486
      809.100000       0.004859
      809.200000       0.004557
      809.300000       0.004442
      809.400000       0.004304
      809.500000       0.004167
      809.600000       0.004030
      809.700000       0.003908
      809.800000       0.003647
      809.900000       0.003214
      810.000000       0.002769
      810.100000       0.002326
      810.200000       0.001884
      810.300000       0.001434
      810.400000       0.001034
      810.500000       0.000891
      810.600000       0.000927
      810.700000       0.000943
      810.800000       0.000958
      810.900000       0.000973
      811.000000       0.000978
      811.100000       0.001070
      811.200000       0.001289
      811.300000       0.001536
      811.400000       0.001779
      811.500000       0.002022
      811.600000       0.002269
      811.700000       0.002510
      811.800000       0.002478
      811.900000       0.002208
      812.000000       0.001965
      812.100000       0.001723
      812.200000       0.001480
      812.300000       0.001231
      812.400000       0.001034
      812.500000       0.000948
      812.600000       0.000908
      812.700000       0.000863
      812.800000       0.000818
      812.900000       0.000772
      813.000000       0.000726
