5,    channel 5 SRF extracted from SRF_FY-3F_MERSI-III.zip(FY3F_MERSI_SRF_CH05_Pub.txt) (received Nov 2023)
Number of data points:
66
Wavenumber (cm-1)   Filter response
     6954.102900       0.005236
     6963.788300       0.006999
     6973.500700       0.008856
     6983.240200       0.009156
     6993.007000       0.006110
     7002.801100       0.007540
     7012.622700       0.011851
     7022.471900       0.009757
     7032.348800       0.010525
     7042.253500       0.013343
     7052.186200       0.015148
     7062.146900       0.018862
     7072.135800       0.025093
     7082.153000       0.033869
     7092.198600       0.040309
     7102.272700       0.054191
     7112.375500       0.072282
     7122.507100       0.096387
     7132.667600       0.128889
     7142.857100       0.175823
     7153.075800       0.240016
     7163.323800       0.324065
     7173.601100       0.429650
     7183.908000       0.553194
     7194.244600       0.684990
     7204.611000       0.801183
     7215.007200       0.888533
     7225.433500       0.950158
     7235.890000       0.982587
     7246.376800       0.997052
     7256.894000       1.000000
     7267.441900       0.982757
     7278.020400       0.936165
     7288.629700       0.862065
     7299.270100       0.749838
     7309.941500       0.614950
     7320.644200       0.488111
     7331.378300       0.358571
     7342.143900       0.244150
     7352.941200       0.165074
     7363.770300       0.123249
     7374.631300       0.104713
     7385.524400       0.094680
     7396.449700       0.081095
     7407.407400       0.054017
     7418.397600       0.029396
     7429.420500       0.022853
     7440.476200       0.019726
     7451.564800       0.013051
     7462.686600       0.004675
     7473.841600       0.007394
     7485.029900       0.008977
     7496.251900       0.006179
     7507.507500       0.003835
     7518.797000       0.008258
     7530.120500       0.005125
     7541.478100       0.004554
     7552.870100       0.006973
     7564.296500       0.005136
     7575.757600       0.002500
     7587.253400       0.004809
     7598.784200       0.003038
     7610.350100       0.000728
     7621.951200       0.001247
     7633.587800       0.001050
     7645.259900       0.000927
