04  , Filter noaa_10_avhrr_04.flt
Number of data points:
60
Wavenumber (cm-1)   Filter response
      840.336000       0.000000
      842.750800       0.000059
      845.165600       0.000581
      847.580400       0.002028
      849.995200       0.005287
      852.410000       0.013938
      854.824800       0.026924
      857.239600       0.050992
      859.654400       0.089242
      862.069200       0.146294
      864.484000       0.223583
      866.898800       0.309806
      869.313600       0.390473
      871.728400       0.453446
      874.143200       0.499418
      876.558000       0.533488
      878.972800       0.560616
      881.387600       0.584571
      883.802400       0.608482
      886.217200       0.635363
      888.632000       0.665986
      891.046800       0.699023
      893.461600       0.732987
      895.876400       0.765838
      898.291200       0.794791
      900.706000       0.816753
      903.120800       0.829560
      905.535600       0.835499
      907.950400       0.838406
      910.365200       0.841933
      912.780000       0.848367
      915.194800       0.858822
      917.609600       0.874289
      920.024400       0.895323
      922.439200       0.920812
      924.854000       0.949270
      927.268800       0.978842
      929.683600       1.000000
      932.098400       0.996226
      934.513200       0.951064
      936.928000       0.853749
      939.342800       0.719191
      941.757600       0.569383
      944.172400       0.426120
      946.587200       0.303545
      949.002000       0.203638
      951.416800       0.127252
      953.831600       0.074981
      956.246400       0.043581
      958.661200       0.026847
      961.076000       0.018497
      963.490800       0.012804
      965.905600       0.008080
      968.320400       0.004398
      970.735200       0.001845
      973.150000       0.000448
      975.564800       0.000000
      977.979600       0.000123
      980.394400       0.000577
      982.809200       0.000000
