10 , goes_13_sounder_10.flt
Number of data points:
1626
Wavenumber (cm-1)   Filter response
     1260.300000       0.001632
     1260.400000       0.001457
     1260.500000       0.001289
     1260.600000       0.001135
     1260.700000       0.001489
     1260.800000       0.001320
     1260.900000       0.001574
     1261.000000       0.001455
     1261.100000       0.001392
     1261.200000       0.001383
     1261.300000       0.001425
     1261.400000       0.001510
     1261.500000       0.001632
     1261.600000       0.001779
     1261.700000       0.001941
     1261.800000       0.002110
     1261.900000       0.002270
     1262.000000       0.002415
     1262.100000       0.002530
     1262.200000       0.002609
     1262.300000       0.002645
     1262.400000       0.002634
     1262.500000       0.002573
     1262.600000       0.002459
     1262.700000       0.002298
     1262.800000       0.002092
     1262.900000       0.001848
     1263.000000       0.001576
     1263.100000       0.001282
     1263.200000       0.000982
     1263.300000       0.000683
     1263.400000       0.000399
     1263.500000       0.000139
     1263.600000       0.000000
     1263.700000       0.000000
     1263.800000       0.000000
     1263.900000       0.000000
     1264.000000       0.000000
     1264.100000       0.000000
     1264.200000       0.000000
     1264.300000       0.000000
     1264.400000       0.000112
     1264.500000       0.000375
     1264.600000       0.000670
     1264.700000       0.000984
     1264.800000       0.001306
     1264.900000       0.001621
     1265.000000       0.001918
     1265.100000       0.002185
     1265.200000       0.002410
     1265.300000       0.002585
     1265.400000       0.002703
     1265.500000       0.002756
     1265.600000       0.002744
     1265.700000       0.002666
     1265.800000       0.002524
     1265.900000       0.002325
     1266.000000       0.002073
     1266.100000       0.001780
     1266.200000       0.001456
     1266.300000       0.001111
     1266.400000       0.000758
     1266.500000       0.000413
     1266.600000       0.000086
     1266.700000       0.000000
     1266.800000       0.000000
     1266.900000       0.000000
     1267.000000       0.000000
     1267.100000       0.000000
     1267.200000       0.000000
     1267.300000       0.000000
     1267.400000       0.000000
     1267.500000       0.000000
     1267.600000       0.000000
     1267.700000       0.000000
     1267.800000       0.000000
     1267.900000       0.000236
     1268.000000       0.000512
     1268.100000       0.000783
     1268.200000       0.001039
     1268.300000       0.001271
     1268.400000       0.001472
     1268.500000       0.001637
     1268.600000       0.001760
     1268.700000       0.001841
     1268.800000       0.001880
     1268.900000       0.001880
     1269.000000       0.001847
     1269.100000       0.001787
     1269.200000       0.001708
     1269.300000       0.001620
     1269.400000       0.001532
     1269.500000       0.001456
     1269.600000       0.001400
     1269.700000       0.001375
     1269.800000       0.001388
     1269.900000       0.001448
     1270.000000       0.001557
     1270.100000       0.001720
     1270.200000       0.001940
     1270.300000       0.002210
     1270.400000       0.002531
     1270.500000       0.002896
     1270.600000       0.003296
     1270.700000       0.003723
     1270.800000       0.004166
     1270.900000       0.004615
     1271.000000       0.005055
     1271.100000       0.005477
     1271.200000       0.005867
     1271.300000       0.006218
     1271.400000       0.006517
     1271.500000       0.006760
     1271.600000       0.006937
     1271.700000       0.007047
     1271.800000       0.007086
     1271.900000       0.007058
     1272.000000       0.006962
     1272.100000       0.006802
     1272.200000       0.006586
     1272.300000       0.006321
     1272.400000       0.006014
     1272.500000       0.005677
     1272.600000       0.005315
     1272.700000       0.004942
     1272.800000       0.004565
     1272.900000       0.004193
     1273.000000       0.003833
     1273.100000       0.003492
     1273.200000       0.003175
     1273.300000       0.002886
     1273.400000       0.002628
     1273.500000       0.002401
     1273.600000       0.002204
     1273.700000       0.002038
     1273.800000       0.001900
     1273.900000       0.001786
     1274.000000       0.001694
     1274.100000       0.001621
     1274.200000       0.001562
     1274.300000       0.001515
     1274.400000       0.001478
     1274.500000       0.001449
     1274.600000       0.001426
     1274.700000       0.001411
     1274.800000       0.001403
     1274.900000       0.001404
     1275.000000       0.001416
     1275.100000       0.001442
     1275.200000       0.001485
     1275.300000       0.001549
     1275.400000       0.001636
     1275.500000       0.001750
     1275.600000       0.001892
     1275.700000       0.002064
     1275.800000       0.002266
     1275.900000       0.002499
     1276.000000       0.002760
     1276.100000       0.003048
     1276.200000       0.003358
     1276.300000       0.003686
     1276.400000       0.004026
     1276.500000       0.004370
     1276.600000       0.004714
     1276.700000       0.005048
     1276.800000       0.005366
     1276.900000       0.005660
     1277.000000       0.005925
     1277.100000       0.006153
     1277.200000       0.006340
     1277.300000       0.006482
     1277.400000       0.006577
     1277.500000       0.006623
     1277.600000       0.006620
     1277.700000       0.006570
     1277.800000       0.006477
     1277.900000       0.006343
     1278.000000       0.006174
     1278.100000       0.005976
     1278.200000       0.005754
     1278.300000       0.005517
     1278.400000       0.005271
     1278.500000       0.005023
     1278.600000       0.004777
     1278.700000       0.004541
     1278.800000       0.004321
     1278.900000       0.004118
     1279.000000       0.003937
     1279.100000       0.003781
     1279.200000       0.003646
     1279.300000       0.003537
     1279.400000       0.003451
     1279.500000       0.003387
     1279.600000       0.003342
     1279.700000       0.003313
     1279.800000       0.003296
     1279.900000       0.003291
     1280.000000       0.003292
     1280.100000       0.003298
     1280.200000       0.003307
     1280.300000       0.003316
     1280.400000       0.003324
     1280.500000       0.003332
     1280.600000       0.003340
     1280.700000       0.003347
     1280.800000       0.003357
     1280.900000       0.003371
     1281.000000       0.003390
     1281.100000       0.003419
     1281.200000       0.003458
     1281.300000       0.003510
     1281.400000       0.003575
     1281.500000       0.003656
     1281.600000       0.003754
     1281.700000       0.003869
     1281.800000       0.003998
     1281.900000       0.004141
     1282.000000       0.004294
     1282.100000       0.004456
     1282.200000       0.004622
     1282.300000       0.004788
     1282.400000       0.004949
     1282.500000       0.005101
     1282.600000       0.005241
     1282.700000       0.005365
     1282.800000       0.005467
     1282.900000       0.005545
     1283.000000       0.005600
     1283.100000       0.005628
     1283.200000       0.005632
     1283.300000       0.005612
     1283.400000       0.005569
     1283.500000       0.005510
     1283.600000       0.005437
     1283.700000       0.005355
     1283.800000       0.005272
     1283.900000       0.005194
     1284.000000       0.005126
     1284.100000       0.005074
     1284.200000       0.005046
     1284.300000       0.005047
     1284.400000       0.005081
     1284.500000       0.005153
     1284.600000       0.005264
     1284.700000       0.005419
     1284.800000       0.005615
     1284.900000       0.005851
     1285.000000       0.006124
     1285.100000       0.006434
     1285.200000       0.006773
     1285.300000       0.007135
     1285.400000       0.007515
     1285.500000       0.007906
     1285.600000       0.008300
     1285.700000       0.008688
     1285.800000       0.009065
     1285.900000       0.009422
     1286.000000       0.009755
     1286.100000       0.010057
     1286.200000       0.010322
     1286.300000       0.010548
     1286.400000       0.010731
     1286.500000       0.010870
     1286.600000       0.010965
     1286.700000       0.011013
     1286.800000       0.011019
     1286.900000       0.010983
     1287.000000       0.010911
     1287.100000       0.010805
     1287.200000       0.010668
     1287.300000       0.010509
     1287.400000       0.010329
     1287.500000       0.010136
     1287.600000       0.009937
     1287.700000       0.009735
     1287.800000       0.009534
     1287.900000       0.009344
     1288.000000       0.009168
     1288.100000       0.009009
     1288.200000       0.008872
     1288.300000       0.008764
     1288.400000       0.008685
     1288.500000       0.008636
     1288.600000       0.008622
     1288.700000       0.008645
     1288.800000       0.008704
     1288.900000       0.008799
     1289.000000       0.008928
     1289.100000       0.009091
     1289.200000       0.009286
     1289.300000       0.009509
     1289.400000       0.009755
     1289.500000       0.010020
     1289.600000       0.010300
     1289.700000       0.010588
     1289.800000       0.010878
     1289.900000       0.011165
     1290.000000       0.011441
     1290.100000       0.011701
     1290.200000       0.011940
     1290.300000       0.012153
     1290.400000       0.012332
     1290.500000       0.012479
     1290.600000       0.012591
     1290.700000       0.012664
     1290.800000       0.012701
     1290.900000       0.012705
     1291.000000       0.012677
     1291.100000       0.012626
     1291.200000       0.012553
     1291.300000       0.012471
     1291.400000       0.012385
     1291.500000       0.012307
     1291.600000       0.012244
     1291.700000       0.012210
     1291.800000       0.012210
     1291.900000       0.012252
     1292.000000       0.012348
     1292.100000       0.012500
     1292.200000       0.012715
     1292.300000       0.012990
     1292.400000       0.013330
     1292.500000       0.013729
     1292.600000       0.014183
     1292.700000       0.014685
     1292.800000       0.015227
     1292.900000       0.015795
     1293.000000       0.016379
     1293.100000       0.016968
     1293.200000       0.017543
     1293.300000       0.018095
     1293.400000       0.018607
     1293.500000       0.019071
     1293.600000       0.019473
     1293.700000       0.019806
     1293.800000       0.020064
     1293.900000       0.020241
     1294.000000       0.020339
     1294.100000       0.020357
     1294.200000       0.020301
     1294.300000       0.020176
     1294.400000       0.019995
     1294.500000       0.019766
     1294.600000       0.019504
     1294.700000       0.019223
     1294.800000       0.018937
     1294.900000       0.018660
     1295.000000       0.018409
     1295.100000       0.018194
     1295.200000       0.018027
     1295.300000       0.017917
     1295.400000       0.017870
     1295.500000       0.017890
     1295.600000       0.017980
     1295.700000       0.018137
     1295.800000       0.018356
     1295.900000       0.018633
     1296.000000       0.018957
     1296.100000       0.019322
     1296.200000       0.019715
     1296.300000       0.020126
     1296.400000       0.020543
     1296.500000       0.020959
     1296.600000       0.021365
     1296.700000       0.021751
     1296.800000       0.022116
     1296.900000       0.022454
     1297.000000       0.022765
     1297.100000       0.023053
     1297.200000       0.023319
     1297.300000       0.023571
     1297.400000       0.023817
     1297.500000       0.024064
     1297.600000       0.024323
     1297.700000       0.024602
     1297.800000       0.024914
     1297.900000       0.025267
     1298.000000       0.025666
     1298.100000       0.026119
     1298.200000       0.026631
     1298.300000       0.027204
     1298.400000       0.027834
     1298.500000       0.028518
     1298.600000       0.029253
     1298.700000       0.030028
     1298.800000       0.030837
     1298.900000       0.031663
     1299.000000       0.032499
     1299.100000       0.033329
     1299.200000       0.034140
     1299.300000       0.034924
     1299.400000       0.035666
     1299.500000       0.036357
     1299.600000       0.036992
     1299.700000       0.037568
     1299.800000       0.038080
     1299.900000       0.038531
     1300.000000       0.038926
     1300.100000       0.039270
     1300.200000       0.039575
     1300.300000       0.039851
     1300.400000       0.040113
     1300.500000       0.040376
     1300.600000       0.040654
     1300.700000       0.040964
     1300.800000       0.041320
     1300.900000       0.041738
     1301.000000       0.042229
     1301.100000       0.042802
     1301.200000       0.043466
     1301.300000       0.044225
     1301.400000       0.045078
     1301.500000       0.046026
     1301.600000       0.047063
     1301.700000       0.048180
     1301.800000       0.049367
     1301.900000       0.050611
     1302.000000       0.051893
     1302.100000       0.053205
     1302.200000       0.054525
     1302.300000       0.055839
     1302.400000       0.057132
     1302.500000       0.058391
     1302.600000       0.059602
     1302.700000       0.060754
     1302.800000       0.061847
     1302.900000       0.062869
     1303.000000       0.063826
     1303.100000       0.064716
     1303.200000       0.065546
     1303.300000       0.066325
     1303.400000       0.067063
     1303.500000       0.067772
     1303.600000       0.068467
     1303.700000       0.069166
     1303.800000       0.069884
     1303.900000       0.070636
     1304.000000       0.071437
     1304.100000       0.072302
     1304.200000       0.073241
     1304.300000       0.074267
     1304.400000       0.075386
     1304.500000       0.076600
     1304.600000       0.077914
     1304.700000       0.079321
     1304.800000       0.080821
     1304.900000       0.082407
     1305.000000       0.084069
     1305.100000       0.085792
     1305.200000       0.087572
     1305.300000       0.089394
     1305.400000       0.091243
     1305.500000       0.093105
     1305.600000       0.094971
     1305.700000       0.096832
     1305.800000       0.098679
     1305.900000       0.100502
     1306.000000       0.102301
     1306.100000       0.104071
     1306.200000       0.105816
     1306.300000       0.107544
     1306.400000       0.109249
     1306.500000       0.110951
     1306.600000       0.112657
     1306.700000       0.114378
     1306.800000       0.116136
     1306.900000       0.117938
     1307.000000       0.119799
     1307.100000       0.121737
     1307.200000       0.123762
     1307.300000       0.125884
     1307.400000       0.128112
     1307.500000       0.130453
     1307.600000       0.132909
     1307.700000       0.135475
     1307.800000       0.138153
     1307.900000       0.140927
     1308.000000       0.143789
     1308.100000       0.146731
     1308.200000       0.149740
     1308.300000       0.152797
     1308.400000       0.155890
     1308.500000       0.159007
     1308.600000       0.162129
     1308.700000       0.165255
     1308.800000       0.168381
     1308.900000       0.171490
     1309.000000       0.174593
     1309.100000       0.177688
     1309.200000       0.180777
     1309.300000       0.183879
     1309.400000       0.186998
     1309.500000       0.190144
     1309.600000       0.193343
     1309.700000       0.196607
     1309.800000       0.199963
     1309.900000       0.203412
     1310.000000       0.206989
     1310.100000       0.210707
     1310.200000       0.214577
     1310.300000       0.218628
     1310.400000       0.222856
     1310.500000       0.227270
     1310.600000       0.231883
     1310.700000       0.236695
     1310.800000       0.241701
     1310.900000       0.246894
     1311.000000       0.252267
     1311.100000       0.257799
     1311.200000       0.263488
     1311.300000       0.269319
     1311.400000       0.275251
     1311.500000       0.281286
     1311.600000       0.287401
     1311.700000       0.293566
     1311.800000       0.299789
     1311.900000       0.306040
     1312.000000       0.312310
     1312.100000       0.318587
     1312.200000       0.324881
     1312.300000       0.331194
     1312.400000       0.337507
     1312.500000       0.343850
     1312.600000       0.350227
     1312.700000       0.356644
     1312.800000       0.363137
     1312.900000       0.369705
     1313.000000       0.376362
     1313.100000       0.383139
     1313.200000       0.390049
     1313.300000       0.397107
     1313.400000       0.404320
     1313.500000       0.411704
     1313.600000       0.419252
     1313.700000       0.426985
     1313.800000       0.434905
     1313.900000       0.442976
     1314.000000       0.451219
     1314.100000       0.459614
     1314.200000       0.468147
     1314.300000       0.476802
     1314.400000       0.485562
     1314.500000       0.494413
     1314.600000       0.503322
     1314.700000       0.512291
     1314.800000       0.521308
     1314.900000       0.530320
     1315.000000       0.539346
     1315.100000       0.548369
     1315.200000       0.557366
     1315.300000       0.566366
     1315.400000       0.575337
     1315.500000       0.584276
     1315.600000       0.593211
     1315.700000       0.602148
     1315.800000       0.611095
     1315.900000       0.620065
     1316.000000       0.629074
     1316.100000       0.638125
     1316.200000       0.647247
     1316.300000       0.656452
     1316.400000       0.665721
     1316.500000       0.675059
     1316.600000       0.684478
     1316.700000       0.693963
     1316.800000       0.703490
     1316.900000       0.713045
     1317.000000       0.722607
     1317.100000       0.732133
     1317.200000       0.741623
     1317.300000       0.751048
     1317.400000       0.760341
     1317.500000       0.769504
     1317.600000       0.778506
     1317.700000       0.787312
     1317.800000       0.795940
     1317.900000       0.804345
     1318.000000       0.812515
     1318.100000       0.820462
     1318.200000       0.828182
     1318.300000       0.835678
     1318.400000       0.842958
     1318.500000       0.850037
     1318.600000       0.856923
     1318.700000       0.863609
     1318.800000       0.870125
     1318.900000       0.876453
     1319.000000       0.882606
     1319.100000       0.888579
     1319.200000       0.894392
     1319.300000       0.900035
     1319.400000       0.905503
     1319.500000       0.910805
     1319.600000       0.915907
     1319.700000       0.920847
     1319.800000       0.925623
     1319.900000       0.930211
     1320.000000       0.934630
     1320.100000       0.938866
     1320.200000       0.942906
     1320.300000       0.946758
     1320.400000       0.950402
     1320.500000       0.953830
     1320.600000       0.957038
     1320.700000       0.960011
     1320.800000       0.962738
     1320.900000       0.965203
     1321.000000       0.967410
     1321.100000       0.969358
     1321.200000       0.971045
     1321.300000       0.972484
     1321.400000       0.973676
     1321.500000       0.974634
     1321.600000       0.975381
     1321.700000       0.975945
     1321.800000       0.976354
     1321.900000       0.976639
     1322.000000       0.976827
     1322.100000       0.976944
     1322.200000       0.977009
     1322.300000       0.977043
     1322.400000       0.977059
     1322.500000       0.977069
     1322.600000       0.977074
     1322.700000       0.977072
     1322.800000       0.977053
     1322.900000       0.977009
     1323.000000       0.976924
     1323.100000       0.976785
     1323.200000       0.976576
     1323.300000       0.976278
     1323.400000       0.975875
     1323.500000       0.975350
     1323.600000       0.974684
     1323.700000       0.973863
     1323.800000       0.972869
     1323.900000       0.971691
     1324.000000       0.970321
     1324.100000       0.968755
     1324.200000       0.966993
     1324.300000       0.965043
     1324.400000       0.962913
     1324.500000       0.960614
     1324.600000       0.958174
     1324.700000       0.955628
     1324.800000       0.953006
     1324.900000       0.950353
     1325.000000       0.947700
     1325.100000       0.945077
     1325.200000       0.942518
     1325.300000       0.940050
     1325.400000       0.937700
     1325.500000       0.935487
     1325.600000       0.933420
     1325.700000       0.931478
     1325.800000       0.929646
     1325.900000       0.927913
     1326.000000       0.926258
     1326.100000       0.924654
     1326.200000       0.923083
     1326.300000       0.921517
     1326.400000       0.919934
     1326.500000       0.918313
     1326.600000       0.916635
     1326.700000       0.914894
     1326.800000       0.913081
     1326.900000       0.911195
     1327.000000       0.909233
     1327.100000       0.907196
     1327.200000       0.905083
     1327.300000       0.902895
     1327.400000       0.900645
     1327.500000       0.898336
     1327.600000       0.895979
     1327.700000       0.893587
     1327.800000       0.891170
     1327.900000       0.888746
     1328.000000       0.886323
     1328.100000       0.883917
     1328.200000       0.881532
     1328.300000       0.879177
     1328.400000       0.876863
     1328.500000       0.874592
     1328.600000       0.872376
     1328.700000       0.870237
     1328.800000       0.868188
     1328.900000       0.866249
     1329.000000       0.864433
     1329.100000       0.862751
     1329.200000       0.861220
     1329.300000       0.859851
     1329.400000       0.858661
     1329.500000       0.857664
     1329.600000       0.856841
     1329.700000       0.856157
     1329.800000       0.855572
     1329.900000       0.855054
     1330.000000       0.854571
     1330.100000       0.854090
     1330.200000       0.853576
     1330.300000       0.852998
     1330.400000       0.852316
     1330.500000       0.851502
     1330.600000       0.850564
     1330.700000       0.849539
     1330.800000       0.848468
     1330.900000       0.847384
     1331.000000       0.846322
     1331.100000       0.845314
     1331.200000       0.844389
     1331.300000       0.843576
     1331.400000       0.842906
     1331.500000       0.842402
     1331.600000       0.842061
     1331.700000       0.841859
     1331.800000       0.841772
     1331.900000       0.841777
     1332.000000       0.841850
     1332.100000       0.841969
     1332.200000       0.842118
     1332.300000       0.842283
     1332.400000       0.842449
     1332.500000       0.842609
     1332.600000       0.842755
     1332.700000       0.842885
     1332.800000       0.842998
     1332.900000       0.843100
     1333.000000       0.843192
     1333.100000       0.843279
     1333.200000       0.843367
     1333.300000       0.843464
     1333.400000       0.843578
     1333.500000       0.843714
     1333.600000       0.843885
     1333.700000       0.844101
     1333.800000       0.844375
     1333.900000       0.844715
     1334.000000       0.845129
     1334.100000       0.845620
     1334.200000       0.846190
     1334.300000       0.846837
     1334.400000       0.847554
     1334.500000       0.848337
     1334.600000       0.849174
     1334.700000       0.850054
     1334.800000       0.850966
     1334.900000       0.851892
     1335.000000       0.852819
     1335.100000       0.853736
     1335.200000       0.854631
     1335.300000       0.855490
     1335.400000       0.856305
     1335.500000       0.857069
     1335.600000       0.857777
     1335.700000       0.858424
     1335.800000       0.859012
     1335.900000       0.859540
     1336.000000       0.860014
     1336.100000       0.860439
     1336.200000       0.860824
     1336.300000       0.861182
     1336.400000       0.861524
     1336.500000       0.861862
     1336.600000       0.862213
     1336.700000       0.862590
     1336.800000       0.863008
     1336.900000       0.863479
     1337.000000       0.864015
     1337.100000       0.864623
     1337.200000       0.865308
     1337.300000       0.866078
     1337.400000       0.866931
     1337.500000       0.867868
     1337.600000       0.868881
     1337.700000       0.869959
     1337.800000       0.871086
     1337.900000       0.872251
     1338.000000       0.873439
     1338.100000       0.874636
     1338.200000       0.875831
     1338.300000       0.877009
     1338.400000       0.878156
     1338.500000       0.879264
     1338.600000       0.880331
     1338.700000       0.881355
     1338.800000       0.882339
     1338.900000       0.883290
     1339.000000       0.884213
     1339.100000       0.885117
     1339.200000       0.886012
     1339.300000       0.886911
     1339.400000       0.887819
     1339.500000       0.888751
     1339.600000       0.889716
     1339.700000       0.890722
     1339.800000       0.891780
     1339.900000       0.892895
     1340.000000       0.894069
     1340.100000       0.895305
     1340.200000       0.896601
     1340.300000       0.897959
     1340.400000       0.899367
     1340.500000       0.900823
     1340.600000       0.902317
     1340.700000       0.903833
     1340.800000       0.905372
     1340.900000       0.906909
     1341.000000       0.908439
     1341.100000       0.909951
     1341.200000       0.911441
     1341.300000       0.912899
     1341.400000       0.914325
     1341.500000       0.915717
     1341.600000       0.917067
     1341.700000       0.918366
     1341.800000       0.919609
     1341.900000       0.920790
     1342.000000       0.921905
     1342.100000       0.922958
     1342.200000       0.923947
     1342.300000       0.924879
     1342.400000       0.925753
     1342.500000       0.926570
     1342.600000       0.927345
     1342.700000       0.928094
     1342.800000       0.928830
     1342.900000       0.929561
     1343.000000       0.930299
     1343.100000       0.931047
     1343.200000       0.931807
     1343.300000       0.932581
     1343.400000       0.933363
     1343.500000       0.934144
     1343.600000       0.934923
     1343.700000       0.935689
     1343.800000       0.936437
     1343.900000       0.937156
     1344.000000       0.937841
     1344.100000       0.938481
     1344.200000       0.939081
     1344.300000       0.939645
     1344.400000       0.940177
     1344.500000       0.940688
     1344.600000       0.941170
     1344.700000       0.941612
     1344.800000       0.942005
     1344.900000       0.942340
     1345.000000       0.942612
     1345.100000       0.942819
     1345.200000       0.942959
     1345.300000       0.943031
     1345.400000       0.943033
     1345.500000       0.942968
     1345.600000       0.942851
     1345.700000       0.942711
     1345.800000       0.942574
     1345.900000       0.942465
     1346.000000       0.942404
     1346.100000       0.942411
     1346.200000       0.942492
     1346.300000       0.942653
     1346.400000       0.942893
     1346.500000       0.943212
     1346.600000       0.943605
     1346.700000       0.944064
     1346.800000       0.944578
     1346.900000       0.945138
     1347.000000       0.945735
     1347.100000       0.946360
     1347.200000       0.947011
     1347.300000       0.947681
     1347.400000       0.948369
     1347.500000       0.949079
     1347.600000       0.949809
     1347.700000       0.950555
     1347.800000       0.951322
     1347.900000       0.952113
     1348.000000       0.952933
     1348.100000       0.953791
     1348.200000       0.954703
     1348.300000       0.955681
     1348.400000       0.956740
     1348.500000       0.957897
     1348.600000       0.959146
     1348.700000       0.960476
     1348.800000       0.961874
     1348.900000       0.963319
     1349.000000       0.964792
     1349.100000       0.966272
     1349.200000       0.967736
     1349.300000       0.969156
     1349.400000       0.970499
     1349.500000       0.971734
     1349.600000       0.972851
     1349.700000       0.973854
     1349.800000       0.974748
     1349.900000       0.975532
     1350.000000       0.976210
     1350.100000       0.976787
     1350.200000       0.977269
     1350.300000       0.977670
     1350.400000       0.978006
     1350.500000       0.978290
     1350.600000       0.978527
     1350.700000       0.978712
     1350.800000       0.978842
     1350.900000       0.978916
     1351.000000       0.978938
     1351.100000       0.978911
     1351.200000       0.978836
     1351.300000       0.978722
     1351.400000       0.978569
     1351.500000       0.978385
     1351.600000       0.978184
     1351.700000       0.977996
     1351.800000       0.977846
     1351.900000       0.977755
     1352.000000       0.977741
     1352.100000       0.977824
     1352.200000       0.978016
     1352.300000       0.978324
     1352.400000       0.978755
     1352.500000       0.979313
     1352.600000       0.979988
     1352.700000       0.980758
     1352.800000       0.981604
     1352.900000       0.982502
     1353.000000       0.983432
     1353.100000       0.984372
     1353.200000       0.985302
     1353.300000       0.986206
     1353.400000       0.987065
     1353.500000       0.987864
     1353.600000       0.988597
     1353.700000       0.989260
     1353.800000       0.989854
     1353.900000       0.990379
     1354.000000       0.990842
     1354.100000       0.991244
     1354.200000       0.991597
     1354.300000       0.991906
     1354.400000       0.992183
     1354.500000       0.992438
     1354.600000       0.992678
     1354.700000       0.992913
     1354.800000       0.993151
     1354.900000       0.993397
     1355.000000       0.993658
     1355.100000       0.993937
     1355.200000       0.994236
     1355.300000       0.994557
     1355.400000       0.994897
     1355.500000       0.995256
     1355.600000       0.995627
     1355.700000       0.996006
     1355.800000       0.996388
     1355.900000       0.996763
     1356.000000       0.997123
     1356.100000       0.997459
     1356.200000       0.997764
     1356.300000       0.998028
     1356.400000       0.998242
     1356.500000       0.998399
     1356.600000       0.998503
     1356.700000       0.998559
     1356.800000       0.998580
     1356.900000       0.998576
     1357.000000       0.998559
     1357.100000       0.998540
     1357.200000       0.998530
     1357.300000       0.998545
     1357.400000       0.998598
     1357.500000       0.998703
     1357.600000       0.998855
     1357.700000       0.999042
     1357.800000       0.999246
     1357.900000       0.999454
     1358.000000       0.999650
     1358.100000       0.999821
     1358.200000       0.999944
     1358.300000       1.000000
     1358.400000       0.999962
     1358.500000       0.999811
     1358.600000       0.999541
     1358.700000       0.999156
     1358.800000       0.998657
     1358.900000       0.998053
     1359.000000       0.997345
     1359.100000       0.996537
     1359.200000       0.995637
     1359.300000       0.994641
     1359.400000       0.993559
     1359.500000       0.992396
     1359.600000       0.991146
     1359.700000       0.989806
     1359.800000       0.988372
     1359.900000       0.986836
     1360.000000       0.985193
     1360.100000       0.983442
     1360.200000       0.981585
     1360.300000       0.979625
     1360.400000       0.977572
     1360.500000       0.975431
     1360.600000       0.973199
     1360.700000       0.970876
     1360.800000       0.968465
     1360.900000       0.965962
     1361.000000       0.963365
     1361.100000       0.960673
     1361.200000       0.957876
     1361.300000       0.954965
     1361.400000       0.951947
     1361.500000       0.948807
     1361.600000       0.945544
     1361.700000       0.942170
     1361.800000       0.938679
     1361.900000       0.935085
     1362.000000       0.931399
     1362.100000       0.927620
     1362.200000       0.923748
     1362.300000       0.919787
     1362.400000       0.915739
     1362.500000       0.911609
     1362.600000       0.907393
     1362.700000       0.903093
     1362.800000       0.898686
     1362.900000       0.894185
     1363.000000       0.889591
     1363.100000       0.884889
     1363.200000       0.880085
     1363.300000       0.875179
     1363.400000       0.870174
     1363.500000       0.865063
     1363.600000       0.859861
     1363.700000       0.854558
     1363.800000       0.849147
     1363.900000       0.843657
     1364.000000       0.838065
     1364.100000       0.832371
     1364.200000       0.826589
     1364.300000       0.820698
     1364.400000       0.814714
     1364.500000       0.808639
     1364.600000       0.802462
     1364.700000       0.796197
     1364.800000       0.789846
     1364.900000       0.783439
     1365.000000       0.776961
     1365.100000       0.770420
     1365.200000       0.763830
     1365.300000       0.757176
     1365.400000       0.750481
     1365.500000       0.743754
     1365.600000       0.736973
     1365.700000       0.730128
     1365.800000       0.723207
     1365.900000       0.716203
     1366.000000       0.709102
     1366.100000       0.701909
     1366.200000       0.694601
     1366.300000       0.687167
     1366.400000       0.679634
     1366.500000       0.671975
     1366.600000       0.664203
     1366.700000       0.656355
     1366.800000       0.648421
     1366.900000       0.640448
     1367.000000       0.632445
     1367.100000       0.624443
     1367.200000       0.616443
     1367.300000       0.608456
     1367.400000       0.600530
     1367.500000       0.592654
     1367.600000       0.584834
     1367.700000       0.577085
     1367.800000       0.569376
     1367.900000       0.561727
     1368.000000       0.554138
     1368.100000       0.546585
     1368.200000       0.539066
     1368.300000       0.531582
     1368.400000       0.524125
     1368.500000       0.516684
     1368.600000       0.509268
     1368.700000       0.501862
     1368.800000       0.494460
     1368.900000       0.487093
     1369.000000       0.479736
     1369.100000       0.472397
     1369.200000       0.465080
     1369.300000       0.457788
     1369.400000       0.450531
     1369.500000       0.443311
     1369.600000       0.436134
     1369.700000       0.429014
     1369.800000       0.421929
     1369.900000       0.414917
     1370.000000       0.407967
     1370.100000       0.401075
     1370.200000       0.394284
     1370.300000       0.387556
     1370.400000       0.380916
     1370.500000       0.374377
     1370.600000       0.367925
     1370.700000       0.361569
     1370.800000       0.355314
     1370.900000       0.349163
     1371.000000       0.343110
     1371.100000       0.337163
     1371.200000       0.331305
     1371.300000       0.325528
     1371.400000       0.319841
     1371.500000       0.314237
     1371.600000       0.308699
     1371.700000       0.303220
     1371.800000       0.297795
     1371.900000       0.292420
     1372.000000       0.287086
     1372.100000       0.281799
     1372.200000       0.276548
     1372.300000       0.271327
     1372.400000       0.266164
     1372.500000       0.261043
     1372.600000       0.255976
     1372.700000       0.250978
     1372.800000       0.246046
     1372.900000       0.241200
     1373.000000       0.236454
     1373.100000       0.231806
     1373.200000       0.227269
     1373.300000       0.222850
     1373.400000       0.218558
     1373.500000       0.214394
     1373.600000       0.210359
     1373.700000       0.206454
     1373.800000       0.202662
     1373.900000       0.198985
     1374.000000       0.195418
     1374.100000       0.191943
     1374.200000       0.188549
     1374.300000       0.185226
     1374.400000       0.181963
     1374.500000       0.178744
     1374.600000       0.175565
     1374.700000       0.172414
     1374.800000       0.169279
     1374.900000       0.166171
     1375.000000       0.163076
     1375.100000       0.159994
     1375.200000       0.156931
     1375.300000       0.153881
     1375.400000       0.150857
     1375.500000       0.147867
     1375.600000       0.144914
     1375.700000       0.142008
     1375.800000       0.139154
     1375.900000       0.136373
     1376.000000       0.133665
     1376.100000       0.131040
     1376.200000       0.128508
     1376.300000       0.126068
     1376.400000       0.123731
     1376.500000       0.121495
     1376.600000       0.119363
     1376.700000       0.117324
     1376.800000       0.115375
     1376.900000       0.113511
     1377.000000       0.111712
     1377.100000       0.109980
     1377.200000       0.108288
     1377.300000       0.106626
     1377.400000       0.104985
     1377.500000       0.103346
     1377.600000       0.101697
     1377.700000       0.100029
     1377.800000       0.098327
     1377.900000       0.096589
     1378.000000       0.094810
     1378.100000       0.092992
     1378.200000       0.091131
     1378.300000       0.089230
     1378.400000       0.087305
     1378.500000       0.085359
     1378.600000       0.083405
     1378.700000       0.081460
     1378.800000       0.079530
     1378.900000       0.077639
     1379.000000       0.075801
     1379.100000       0.074024
     1379.200000       0.072323
     1379.300000       0.070709
     1379.400000       0.069191
     1379.500000       0.067772
     1379.600000       0.066459
     1379.700000       0.065245
     1379.800000       0.064129
     1379.900000       0.063107
     1380.000000       0.062168
     1380.100000       0.061299
     1380.200000       0.060490
     1380.300000       0.059726
     1380.400000       0.058993
     1380.500000       0.058275
     1380.600000       0.057559
     1380.700000       0.056831
     1380.800000       0.056081
     1380.900000       0.055300
     1381.000000       0.054479
     1381.100000       0.053617
     1381.200000       0.052709
     1381.300000       0.051757
     1381.400000       0.050765
     1381.500000       0.049739
     1381.600000       0.048684
     1381.700000       0.047610
     1381.800000       0.046528
     1381.900000       0.045449
     1382.000000       0.044381
     1382.100000       0.043342
     1382.200000       0.042338
     1382.300000       0.041377
     1382.400000       0.040473
     1382.500000       0.039631
     1382.600000       0.038853
     1382.700000       0.038144
     1382.800000       0.037503
     1382.900000       0.036930
     1383.000000       0.036421
     1383.100000       0.035969
     1383.200000       0.035565
     1383.300000       0.035204
     1383.400000       0.034874
     1383.500000       0.034564
     1383.600000       0.034266
     1383.700000       0.033967
     1383.800000       0.033658
     1383.900000       0.033333
     1384.000000       0.032983
     1384.100000       0.032602
     1384.200000       0.032186
     1384.300000       0.031735
     1384.400000       0.031244
     1384.500000       0.030718
     1384.600000       0.030161
     1384.700000       0.029575
     1384.800000       0.028967
     1384.900000       0.028346
     1385.000000       0.027718
     1385.100000       0.027094
     1385.200000       0.026480
     1385.300000       0.025885
     1385.400000       0.025317
     1385.500000       0.024784
     1385.600000       0.024292
     1385.700000       0.023842
     1385.800000       0.023442
     1385.900000       0.023090
     1386.000000       0.022787
     1386.100000       0.022530
     1386.200000       0.022318
     1386.300000       0.022146
     1386.400000       0.022010
     1386.500000       0.021902
     1386.600000       0.021816
     1386.700000       0.021742
     1386.800000       0.021676
     1386.900000       0.021607
     1387.000000       0.021528
     1387.100000       0.021432
     1387.200000       0.021315
     1387.300000       0.021167
     1387.400000       0.020986
     1387.500000       0.020769
     1387.600000       0.020512
     1387.700000       0.020214
     1387.800000       0.019876
     1387.900000       0.019497
     1388.000000       0.019078
     1388.100000       0.018625
     1388.200000       0.018138
     1388.300000       0.017620
     1388.400000       0.017080
     1388.500000       0.016519
     1388.600000       0.015943
     1388.700000       0.015358
     1388.800000       0.014768
     1388.900000       0.014178
     1389.000000       0.013593
     1389.100000       0.013020
     1389.200000       0.012458
     1389.300000       0.011914
     1389.400000       0.011391
     1389.500000       0.010891
     1389.600000       0.010416
     1389.700000       0.009969
     1389.800000       0.009550
     1389.900000       0.009161
     1390.000000       0.008803
     1390.100000       0.008478
     1390.200000       0.008185
     1390.300000       0.007925
     1390.400000       0.007701
     1390.500000       0.007510
     1390.600000       0.007355
     1390.700000       0.007235
     1390.800000       0.007151
     1390.900000       0.007101
     1391.000000       0.007084
     1391.100000       0.007102
     1391.200000       0.007152
     1391.300000       0.007229
     1391.400000       0.007335
     1391.500000       0.007465
     1391.600000       0.007616
     1391.700000       0.007783
     1391.800000       0.007963
     1391.900000       0.008150
     1392.000000       0.008340
     1392.100000       0.008526
     1392.200000       0.008702
     1392.300000       0.008865
     1392.400000       0.009009
     1392.500000       0.009129
     1392.600000       0.009220
     1392.700000       0.009280
     1392.800000       0.009307
     1392.900000       0.009295
     1393.000000       0.009249
     1393.100000       0.009166
     1393.200000       0.009048
     1393.300000       0.008898
     1393.400000       0.008720
     1393.500000       0.008517
     1393.600000       0.008295
     1393.700000       0.008061
     1393.800000       0.007820
     1393.900000       0.007578
     1394.000000       0.007342
     1394.100000       0.007117
     1394.200000       0.006911
     1394.300000       0.006726
     1394.400000       0.006568
     1394.500000       0.006437
     1394.600000       0.006338
     1394.700000       0.006272
     1394.800000       0.006236
     1394.900000       0.006232
     1395.000000       0.006254
     1395.100000       0.006300
     1395.200000       0.006365
     1395.300000       0.006446
     1395.400000       0.006535
     1395.500000       0.006630
     1395.600000       0.006725
     1395.700000       0.006813
     1395.800000       0.006892
     1395.900000       0.006957
     1396.000000       0.007006
     1396.100000       0.007037
     1396.200000       0.007050
     1396.300000       0.007042
     1396.400000       0.007017
     1396.500000       0.006975
     1396.600000       0.006918
     1396.700000       0.006850
     1396.800000       0.006774
     1396.900000       0.006693
     1397.000000       0.006611
     1397.100000       0.006532
     1397.200000       0.006457
     1397.300000       0.006390
     1397.400000       0.006332
     1397.500000       0.006283
     1397.600000       0.006244
     1397.700000       0.006213
     1397.800000       0.006189
     1397.900000       0.006170
     1398.000000       0.006152
     1398.100000       0.006131
     1398.200000       0.006104
     1398.300000       0.006067
     1398.400000       0.006015
     1398.500000       0.005946
     1398.600000       0.005856
     1398.700000       0.005742
     1398.800000       0.005604
     1398.900000       0.005439
     1399.000000       0.005250
     1399.100000       0.005035
     1399.200000       0.004797
     1399.300000       0.004539
     1399.400000       0.004264
     1399.500000       0.003978
     1399.600000       0.003684
     1399.700000       0.003388
     1399.800000       0.003094
     1399.900000       0.002809
     1400.000000       0.002537
     1400.100000       0.002281
     1400.200000       0.002046
     1400.300000       0.001836
     1400.400000       0.001653
     1400.500000       0.001498
     1400.600000       0.001373
     1400.700000       0.001279
     1400.800000       0.001213
     1400.900000       0.001178
     1401.000000       0.001170
     1401.100000       0.001189
     1401.200000       0.001231
     1401.300000       0.001297
     1401.400000       0.001382
     1401.500000       0.001486
     1401.600000       0.001606
     1401.700000       0.001743
     1401.800000       0.001894
     1401.900000       0.002058
     1402.000000       0.002234
     1402.100000       0.002421
     1402.200000       0.002620
     1402.300000       0.002829
     1402.400000       0.003048
     1402.500000       0.003274
     1402.600000       0.003510
     1402.700000       0.003751
     1402.800000       0.003995
     1402.900000       0.004241
     1403.000000       0.004487
     1403.100000       0.004727
     1403.200000       0.004961
     1403.300000       0.005182
     1403.400000       0.005389
     1403.500000       0.005576
     1403.600000       0.005740
     1403.700000       0.005877
     1403.800000       0.005983
     1403.900000       0.006057
     1404.000000       0.006097
     1404.100000       0.006100
     1404.200000       0.006067
     1404.300000       0.005999
     1404.400000       0.005896
     1404.500000       0.005760
     1404.600000       0.005597
     1404.700000       0.005410
     1404.800000       0.005201
     1404.900000       0.004976
     1405.000000       0.004743
     1405.100000       0.004504
     1405.200000       0.004265
     1405.300000       0.004030
     1405.400000       0.003805
     1405.500000       0.003593
     1405.600000       0.003396
     1405.700000       0.003218
     1405.800000       0.003057
     1405.900000       0.002916
     1406.000000       0.002796
     1406.100000       0.002693
     1406.200000       0.002606
     1406.300000       0.002536
     1406.400000       0.002476
     1406.500000       0.002426
     1406.600000       0.002384
     1406.700000       0.002347
     1406.800000       0.002313
     1406.900000       0.002280
     1407.000000       0.002249
     1407.100000       0.002217
     1407.200000       0.002186
     1407.300000       0.002156
     1407.400000       0.002128
     1407.500000       0.002105
     1407.600000       0.002086
     1407.700000       0.002076
     1407.800000       0.002075
     1407.900000       0.002086
     1408.000000       0.002107
     1408.100000       0.002141
     1408.200000       0.002189
     1408.300000       0.002249
     1408.400000       0.002317
     1408.500000       0.002393
     1408.600000       0.002473
     1408.700000       0.002551
     1408.800000       0.002625
     1408.900000       0.002687
     1409.000000       0.002733
     1409.100000       0.002756
     1409.200000       0.002752
     1409.300000       0.002716
     1409.400000       0.002642
     1409.500000       0.002529
     1409.600000       0.002374
     1409.700000       0.002177
     1409.800000       0.001938
     1409.900000       0.001662
     1410.000000       0.001349
     1410.100000       0.001007
     1410.200000       0.000643
     1410.300000       0.000263
     1410.400000       0.000000
     1410.500000       0.000000
     1410.600000       0.000000
     1410.700000       0.000000
     1410.800000       0.000000
     1410.900000       0.000000
     1411.000000       0.000000
     1411.100000       0.000000
     1411.200000       0.000000
     1411.300000       0.000000
     1411.400000       0.000000
     1411.500000       0.000000
     1411.600000       0.000000
     1411.700000       0.000000
     1411.800000       0.000000
     1411.900000       0.000000
     1412.000000       0.000000
     1412.100000       0.000000
     1412.200000       0.000000
     1412.300000       0.000000
     1412.400000       0.000000
     1412.500000       0.000000
     1412.600000       0.000137
     1412.700000       0.000290
     1412.800000       0.000397
     1412.900000       0.000453
     1413.000000       0.000459
     1413.100000       0.000414
     1413.200000       0.000321
     1413.300000       0.000186
     1413.400000       0.000016
     1413.500000       0.000000
     1413.600000       0.000000
     1413.700000       0.000000
     1413.800000       0.000000
     1413.900000       0.000000
     1414.000000       0.000000
     1414.100000       0.000000
     1414.200000       0.000000
     1414.300000       0.000000
     1414.400000       0.000000
     1414.500000       0.000000
     1414.600000       0.000000
     1414.700000       0.000000
     1414.800000       0.000000
     1414.900000       0.000000
     1415.000000       0.000000
     1415.100000       0.000000
     1415.200000       0.000000
     1415.300000       0.000000
     1415.400000       0.000000
     1415.500000       0.000096
     1415.600000       0.000273
     1415.700000       0.000415
     1415.800000       0.000518
     1415.900000       0.000574
     1416.000000       0.000584
     1416.100000       0.000546
     1416.200000       0.000462
     1416.300000       0.000334
     1416.400000       0.000171
     1416.500000       0.000000
     1416.600000       0.000000
     1416.700000       0.000000
     1416.800000       0.000000
     1416.900000       0.000000
     1417.000000       0.000000
     1417.100000       0.000000
     1417.200000       0.000000
     1417.300000       0.000000
     1417.400000       0.000000
     1417.500000       0.000000
     1417.600000       0.000000
     1417.700000       0.000000
     1417.800000       0.000000
     1417.900000       0.000000
     1418.000000       0.000000
     1418.100000       0.000000
     1418.200000       0.000000
     1418.300000       0.000000
     1418.400000       0.000000
     1418.500000       0.000221
     1418.600000       0.000458
     1418.700000       0.000669
     1418.800000       0.000851
     1418.900000       0.000994
     1419.000000       0.001096
     1419.100000       0.001154
     1419.200000       0.001167
     1419.300000       0.001137
     1419.400000       0.001067
     1419.500000       0.000961
     1419.600000       0.000824
     1419.700000       0.000666
     1419.800000       0.000490
     1419.900000       0.000307
     1420.000000       0.000123
     1420.100000       0.000000
     1420.200000       0.000000
     1420.300000       0.000000
     1420.400000       0.000000
     1420.500000       0.000000
     1420.600000       0.000000
     1420.700000       0.000000
     1420.800000       0.000000
     1420.900000       0.000000
     1421.000000       0.000000
     1421.100000       0.000000
     1421.200000       0.000000
     1421.300000       0.000000
     1421.400000       0.000103
     1421.500000       0.000262
     1421.600000       0.000418
     1421.700000       0.000566
     1421.800000       0.000701
     1421.900000       0.000818
     1422.000000       0.000913
     1422.100000       0.000984
     1422.200000       0.001031
     1422.300000       0.001053
     1422.400000       0.001051
     1422.500000       0.000771
     1422.600000       0.000740
     1422.700000       0.000458
     1422.800000       0.000422
