  11  ,noaa_15_hirs_11.flt
Number of data points:
72
Wavenumber (cm-1)   Filter response
     1325.300000       0.000000
     1328.500000       0.014478
     1329.400000       0.015128
     1330.400000       0.022967
     1331.400000       0.034373
     1332.400000       0.047909
     1333.400000       0.063975
     1334.400000       0.083416
     1335.400000       0.105930
     1336.400000       0.128500
     1337.400000       0.150500
     1338.400000       0.173230
     1339.400000       0.200600
     1340.400000       0.236020
     1341.400000       0.283980
     1342.400000       0.347570
     1343.400000       0.430990
     1344.400000       0.531010
     1345.400000       0.638230
     1346.400000       0.732140
     1347.400000       0.795630
     1348.400000       0.817680
     1349.400000       0.800950
     1350.400000       0.756490
     1351.400000       0.702090
     1352.400000       0.651890
     1353.400000       0.614830
     1354.400000       0.595110
     1355.400000       0.593870
     1356.400000       0.610720
     1357.400000       0.643590
     1358.400000       0.689340
     1359.400000       0.743690
     1360.400000       0.802920
     1361.400000       0.817700
     1362.400000       0.870800
     1363.400000       0.917710
     1364.400000       0.954100
     1365.400000       0.980380
     1366.400000       0.994850
     1367.400000       1.000000
     1368.400000       0.997150
     1369.400000       0.985650
     1370.400000       0.962940
     1371.400000       0.928010
     1372.400000       0.883590
     1373.400000       0.832670
     1374.400000       0.779850
     1375.400000       0.728770
     1376.400000       0.680660
     1377.400000       0.634500
     1378.400000       0.589120
     1379.400000       0.542350
     1380.400000       0.490070
     1381.400000       0.431290
     1382.400000       0.366050
     1383.400000       0.298340
     1384.400000       0.234080
     1385.400000       0.178560
     1386.400000       0.133100
     1387.400000       0.097217
     1388.400000       0.070414
     1389.400000       0.051065
     1390.400000       0.038496
     1391.400000       0.029886
     1392.400000       0.024316
     1393.400000       0.020031
     1394.400000       0.016761
     1395.400000       0.014252
     1396.400000       0.012613
     1396.700000       0.012114
     1404.300000       0.000000
