05 , goes_08_sounder_05.flt
Number of data points:
700
Wavenumber (cm-1)   Filter response
      708.700000       0.001942
      708.800000       0.001996
      708.900000       0.002048
      709.000000       0.002100
      709.100000       0.002151
      709.200000       0.002200
      709.300000       0.002249
      709.400000       0.002296
      709.500000       0.002343
      709.600000       0.002389
      709.700000       0.002433
      709.800000       0.002477
      709.900000       0.002520
      710.000000       0.002562
      710.100000       0.002604
      710.200000       0.002644
      710.300000       0.002684
      710.400000       0.002722
      710.500000       0.002760
      710.600000       0.002798
      710.700000       0.002834
      710.800000       0.002869
      710.900000       0.002904
      711.000000       0.002938
      711.100000       0.002970
      711.200000       0.003002
      711.300000       0.003034
      711.400000       0.003064
      711.500000       0.003093
      711.600000       0.003121
      711.700000       0.003148
      711.800000       0.003174
      711.900000       0.003199
      712.000000       0.003223
      712.100000       0.003245
      712.200000       0.003266
      712.300000       0.003286
      712.400000       0.003305
      712.500000       0.003322
      712.600000       0.003337
      712.700000       0.003351
      712.800000       0.003363
      712.900000       0.003374
      713.000000       0.003382
      713.100000       0.003389
      713.200000       0.003393
      713.300000       0.003395
      713.400000       0.003395
      713.500000       0.003393
      713.600000       0.003387
      713.700000       0.003380
      713.800000       0.003369
      713.900000       0.003357
      714.000000       0.003342
      714.100000       0.003325
      714.200000       0.003306
      714.300000       0.003286
      714.400000       0.003263
      714.500000       0.003239
      714.600000       0.003214
      714.700000       0.003187
      714.800000       0.003159
      714.900000       0.003130
      715.000000       0.003099
      715.100000       0.003068
      715.200000       0.003035
      715.300000       0.003002
      715.400000       0.002968
      715.500000       0.002933
      715.600000       0.002898
      715.700000       0.002862
      715.800000       0.002826
      715.900000       0.002789
      716.000000       0.002752
      716.100000       0.002715
      716.200000       0.002678
      716.300000       0.002641
      716.400000       0.002603
      716.500000       0.002566
      716.600000       0.002529
      716.700000       0.002492
      716.800000       0.002456
      716.900000       0.002419
      717.000000       0.002384
      717.100000       0.002349
      717.200000       0.002315
      717.300000       0.002281
      717.400000       0.002248
      717.500000       0.002217
      717.600000       0.002186
      717.700000       0.002157
      717.800000       0.002128
      717.900000       0.002102
      718.000000       0.002077
      718.100000       0.002053
      718.200000       0.002031
      718.300000       0.002012
      718.400000       0.001994
      718.500000       0.001978
      718.600000       0.001964
      718.700000       0.001951
      718.800000       0.001940
      718.900000       0.001930
      719.000000       0.001922
      719.100000       0.001915
      719.200000       0.001909
      719.300000       0.001905
      719.400000       0.001901
      719.500000       0.001899
      719.600000       0.001898
      719.700000       0.001897
      719.800000       0.001898
      719.900000       0.001899
      720.000000       0.001901
      720.100000       0.001904
      720.200000       0.001908
      720.300000       0.001912
      720.400000       0.001917
      720.500000       0.001923
      720.600000       0.001929
      720.700000       0.001936
      720.800000       0.001943
      720.900000       0.001950
      721.000000       0.001959
      721.100000       0.001967
      721.200000       0.001976
      721.300000       0.001985
      721.400000       0.001995
      721.500000       0.002005
      721.600000       0.002015
      721.700000       0.002026
      721.800000       0.002037
      721.900000       0.002048
      722.000000       0.002059
      722.100000       0.002071
      722.200000       0.002082
      722.300000       0.002094
      722.400000       0.002106
      722.500000       0.002119
      722.600000       0.002131
      722.700000       0.002143
      722.800000       0.002156
      722.900000       0.002168
      723.000000       0.002181
      723.100000       0.002194
      723.200000       0.002207
      723.300000       0.002219
      723.400000       0.002232
      723.500000       0.002244
      723.600000       0.002257
      723.700000       0.002269
      723.800000       0.002281
      723.900000       0.002293
      724.000000       0.002304
      724.100000       0.002315
      724.200000       0.002326
      724.300000       0.002336
      724.400000       0.002346
      724.500000       0.002355
      724.600000       0.002364
      724.700000       0.002372
      724.800000       0.002379
      724.900000       0.002386
      725.000000       0.002392
      725.100000       0.002396
      725.200000       0.002400
      725.300000       0.002403
      725.400000       0.002405
      725.500000       0.002406
      725.600000       0.002405
      725.700000       0.002403
      725.800000       0.002400
      725.900000       0.002395
      726.000000       0.002388
      726.100000       0.002380
      726.200000       0.002370
      726.300000       0.002358
      726.400000       0.002344
      726.500000       0.002328
      726.600000       0.002310
      726.700000       0.002289
      726.800000       0.002265
      726.900000       0.002239
      727.000000       0.002210
      727.100000       0.002178
      727.200000       0.002143
      727.300000       0.002104
      727.400000       0.002061
      727.500000       0.002015
      727.600000       0.001965
      727.700000       0.001910
      727.800000       0.001851
      727.900000       0.001787
      728.000000       0.001718
      728.100000       0.001643
      728.200000       0.001563
      728.300000       0.001477
      728.400000       0.001387
      728.500000       0.001293
      728.600000       0.001196
      728.700000       0.001098
      728.800000       0.001000
      728.900000       0.000901
      729.000000       0.000805
      729.100000       0.000711
      729.200000       0.000620
      729.300000       0.000535
      729.400000       0.000454
      729.500000       0.000381
      729.600000       0.000315
      729.700000       0.000258
      729.800000       0.000211
      729.900000       0.000176
      730.000000       0.000153
      730.100000       0.000144
      730.200000       0.000150
      730.300000       0.000172
      730.400000       0.000212
      730.500000       0.000271
      730.600000       0.000351
      730.700000       0.000453
      730.800000       0.000579
      730.900000       0.000731
      731.000000       0.000911
      731.100000       0.001120
      731.200000       0.001360
      731.300000       0.001634
      731.400000       0.001943
      731.500000       0.002290
      731.600000       0.002676
      731.700000       0.003100
      731.800000       0.003555
      731.900000       0.004039
      732.000000       0.004545
      732.100000       0.005070
      732.200000       0.005611
      732.300000       0.006162
      732.400000       0.006720
      732.500000       0.007280
      732.600000       0.007838
      732.700000       0.008391
      732.800000       0.008933
      732.900000       0.009462
      733.000000       0.009972
      733.100000       0.010468
      733.200000       0.010962
      733.300000       0.011468
      733.400000       0.011999
      733.500000       0.012570
      733.600000       0.013193
      733.700000       0.013882
      733.800000       0.014653
      733.900000       0.015519
      734.000000       0.016495
      734.100000       0.017596
      734.200000       0.018837
      734.300000       0.020232
      734.400000       0.021799
      734.500000       0.023526
      734.600000       0.025397
      734.700000       0.027394
      734.800000       0.029496
      734.900000       0.031689
      735.000000       0.033955
      735.100000       0.036277
      735.200000       0.038643
      735.300000       0.041028
      735.400000       0.043422
      735.500000       0.045830
      735.600000       0.048327
      735.700000       0.050998
      735.800000       0.053923
      735.900000       0.057191
      736.000000       0.060879
      736.100000       0.065084
      736.200000       0.069892
      736.300000       0.075392
      736.400000       0.081651
      736.500000       0.088562
      736.600000       0.095982
      736.700000       0.103770
      736.800000       0.111781
      736.900000       0.119980
      737.000000       0.128375
      737.100000       0.137001
      737.200000       0.145888
      737.300000       0.155068
      737.400000       0.164575
      737.500000       0.174441
      737.600000       0.184686
      737.700000       0.195361
      737.800000       0.206484
      737.900000       0.218116
      738.000000       0.230258
      738.100000       0.242897
      738.200000       0.255974
      738.300000       0.269444
      738.400000       0.283308
      738.500000       0.297586
      738.600000       0.312300
      738.700000       0.327489
      738.800000       0.343132
      738.900000       0.359243
      739.000000       0.375786
      739.100000       0.392764
      739.200000       0.410175
      739.300000       0.427971
      739.400000       0.446161
      739.500000       0.464616
      739.600000       0.483207
      739.700000       0.501767
      739.800000       0.520107
      739.900000       0.538087
      740.000000       0.555502
      740.100000       0.572341
      740.200000       0.588763
      740.300000       0.604895
      740.400000       0.620913
      740.500000       0.636926
      740.600000       0.653098
      740.700000       0.669556
      740.800000       0.686239
      740.900000       0.702977
      741.000000       0.719585
      741.100000       0.735872
      741.200000       0.751682
      741.300000       0.766804
      741.400000       0.781099
      741.500000       0.794516
      741.600000       0.807154
      741.700000       0.819071
      741.800000       0.830338
      741.900000       0.841030
      742.000000       0.851216
      742.100000       0.860964
      742.200000       0.870348
      742.300000       0.879413
      742.400000       0.888238
      742.500000       0.896847
      742.600000       0.905225
      742.700000       0.913341
      742.800000       0.921144
      742.900000       0.928604
      743.000000       0.935678
      743.100000       0.942321
      743.200000       0.948502
      743.300000       0.954164
      743.400000       0.959304
      743.500000       0.963940
      743.600000       0.968108
      743.700000       0.971841
      743.800000       0.975160
      743.900000       0.978099
      744.000000       0.980678
      744.100000       0.982922
      744.200000       0.984857
      744.300000       0.986505
      744.400000       0.987897
      744.500000       0.989063
      744.600000       0.990042
      744.700000       0.990864
      744.800000       0.991566
      744.900000       0.992183
      745.000000       0.992749
      745.100000       0.993295
      745.200000       0.993826
      745.300000       0.994346
      745.400000       0.994850
      745.500000       0.995336
      745.600000       0.995808
      745.700000       0.996259
      745.800000       0.996691
      745.900000       0.997104
      746.000000       0.997495
      746.100000       0.997863
      746.200000       0.998208
      746.300000       0.998526
      746.400000       0.998817
      746.500000       0.999080
      746.600000       0.999315
      746.700000       0.999516
      746.800000       0.999686
      746.900000       0.999821
      747.000000       0.999918
      747.100000       0.999979
      747.200000       1.000000
      747.300000       0.999979
      747.400000       0.999915
      747.500000       0.999805
      747.600000       0.999650
      747.700000       0.999445
      747.800000       0.999186
      747.900000       0.998876
      748.000000       0.998508
      748.100000       0.998081
      748.200000       0.997593
      748.300000       0.997040
      748.400000       0.996425
      748.500000       0.995748
      748.600000       0.995010
      748.700000       0.994214
      748.800000       0.993361
      748.900000       0.992451
      749.000000       0.991483
      749.100000       0.990461
      749.200000       0.989382
      749.300000       0.988250
      749.400000       0.987050
      749.500000       0.985705
      749.600000       0.984115
      749.700000       0.982177
      749.800000       0.979794
      749.900000       0.976862
      750.000000       0.973278
      750.100000       0.968938
      750.200000       0.963725
      750.300000       0.957546
      750.400000       0.950493
      750.500000       0.942841
      750.600000       0.934844
      750.700000       0.926756
      750.800000       0.918833
      750.900000       0.911099
      751.000000       0.903430
      751.100000       0.895671
      751.200000       0.887676
      751.300000       0.879295
      751.400000       0.870375
      751.500000       0.860767
      751.600000       0.850329
      751.700000       0.838886
      751.800000       0.826305
      751.900000       0.812395
      752.000000       0.797083
      752.100000       0.780578
      752.200000       0.763201
      752.300000       0.745268
      752.400000       0.727082
      752.500000       0.708940
      752.600000       0.691153
      752.700000       0.673872
      752.800000       0.657018
      752.900000       0.640408
      753.000000       0.623905
      753.100000       0.607335
      753.200000       0.590533
      753.300000       0.573376
      753.400000       0.555777
      753.500000       0.537830
      753.600000       0.519613
      753.700000       0.501168
      753.800000       0.482609
      753.900000       0.463985
      754.000000       0.445407
      754.100000       0.426914
      754.200000       0.408542
      754.300000       0.390363
      754.400000       0.372399
      754.500000       0.354751
      754.600000       0.337449
      754.700000       0.320548
      754.800000       0.304086
      754.900000       0.288104
      755.000000       0.272659
      755.100000       0.257810
      755.200000       0.243591
      755.300000       0.230079
      755.400000       0.217259
      755.500000       0.205122
      755.600000       0.193616
      755.700000       0.182724
      755.800000       0.172420
      755.900000       0.162675
      756.000000       0.153459
      756.100000       0.144751
      756.200000       0.136522
      756.300000       0.128768
      756.400000       0.121461
      756.500000       0.114589
      756.600000       0.108128
      756.700000       0.102051
      756.800000       0.096346
      756.900000       0.090983
      757.000000       0.085946
      757.100000       0.081214
      757.200000       0.076759
      757.300000       0.072571
      757.400000       0.068626
      757.500000       0.064915
      757.600000       0.061418
      757.700000       0.058116
      757.800000       0.054998
      757.900000       0.052044
      758.000000       0.049247
      758.100000       0.046590
      758.200000       0.044062
      758.300000       0.041647
      758.400000       0.039338
      758.500000       0.037134
      758.600000       0.035033
      758.700000       0.033030
      758.800000       0.031129
      758.900000       0.029323
      759.000000       0.027614
      759.100000       0.025998
      759.200000       0.024471
      759.300000       0.023030
      759.400000       0.021669
      759.500000       0.020384
      759.600000       0.019172
      759.700000       0.018026
      759.800000       0.016946
      759.900000       0.015927
      760.000000       0.014968
      760.100000       0.014063
      760.200000       0.013209
      760.300000       0.012406
      760.400000       0.011650
      760.500000       0.010940
      760.600000       0.010273
      760.700000       0.009645
      760.800000       0.009056
      760.900000       0.008504
      761.000000       0.007987
      761.100000       0.007504
      761.200000       0.007053
      761.300000       0.006632
      761.400000       0.006238
      761.500000       0.005872
      761.600000       0.005531
      761.700000       0.005214
      761.800000       0.004919
      761.900000       0.004645
      762.000000       0.004391
      762.100000       0.004156
      762.200000       0.003939
      762.300000       0.003738
      762.400000       0.003552
      762.500000       0.003382
      762.600000       0.003224
      762.700000       0.003079
      762.800000       0.002947
      762.900000       0.002825
      763.000000       0.002714
      763.100000       0.002612
      763.200000       0.002519
      763.300000       0.002434
      763.400000       0.002357
      763.500000       0.002286
      763.600000       0.002222
      763.700000       0.002163
      763.800000       0.002110
      763.900000       0.002062
      764.000000       0.002018
      764.100000       0.001980
      764.200000       0.001945
      764.300000       0.001915
      764.400000       0.001889
      764.500000       0.001866
      764.600000       0.001846
      764.700000       0.001830
      764.800000       0.001817
      764.900000       0.001807
      765.000000       0.001800
      765.100000       0.001795
      765.200000       0.001793
      765.300000       0.001793
      765.400000       0.001795
      765.500000       0.001799
      765.600000       0.001805
      765.700000       0.001812
      765.800000       0.001822
      765.900000       0.001833
      766.000000       0.001845
      766.100000       0.001859
      766.200000       0.001874
      766.300000       0.001890
      766.400000       0.001907
      766.500000       0.001926
      766.600000       0.001945
      766.700000       0.001965
      766.800000       0.001986
      766.900000       0.002007
      767.000000       0.002029
      767.100000       0.002052
      767.200000       0.002075
      767.300000       0.002099
      767.400000       0.002122
      767.500000       0.002147
      767.600000       0.002171
      767.700000       0.002196
      767.800000       0.002220
      767.900000       0.002245
      768.000000       0.002270
      768.100000       0.002294
      768.200000       0.002318
      768.300000       0.002343
      768.400000       0.002367
      768.500000       0.002390
      768.600000       0.002413
      768.700000       0.002437
      768.800000       0.002459
      768.900000       0.002482
      769.000000       0.002504
      769.100000       0.002526
      769.200000       0.002548
      769.300000       0.002569
      769.400000       0.002591
      769.500000       0.002612
      769.600000       0.002632
      769.700000       0.002653
      769.800000       0.002673
      769.900000       0.002693
      770.000000       0.002712
      770.100000       0.002732
      770.200000       0.002751
      770.300000       0.002769
      770.400000       0.002788
      770.500000       0.002806
      770.600000       0.002824
      770.700000       0.002841
      770.800000       0.002858
      770.900000       0.002874
      771.000000       0.002891
      771.100000       0.002906
      771.200000       0.002922
      771.300000       0.002937
      771.400000       0.002951
      771.500000       0.002965
      771.600000       0.002978
      771.700000       0.002991
      771.800000       0.003003
      771.900000       0.003015
      772.000000       0.003026
      772.100000       0.003036
      772.200000       0.003045
      772.300000       0.003054
      772.400000       0.003062
      772.500000       0.003069
      772.600000       0.003075
      772.700000       0.003080
      772.800000       0.003084
      772.900000       0.003087
      773.000000       0.003089
      773.100000       0.003090
      773.200000       0.003089
      773.300000       0.003087
      773.400000       0.003083
      773.500000       0.003078
      773.600000       0.003072
      773.700000       0.003063
      773.800000       0.003053
      773.900000       0.003042
      774.000000       0.003029
      774.100000       0.003014
      774.200000       0.002998
      774.300000       0.002980
      774.400000       0.002962
      774.500000       0.002942
      774.600000       0.002920
      774.700000       0.002898
      774.800000       0.002875
      774.900000       0.002850
      775.000000       0.002824
      775.100000       0.002798
      775.200000       0.002770
      775.300000       0.002742
      775.400000       0.002713
      775.500000       0.002682
      775.600000       0.002651
      775.700000       0.002619
      775.800000       0.002586
      775.900000       0.002552
      776.000000       0.002518
      776.100000       0.002483
      776.200000       0.002446
      776.300000       0.002409
      776.400000       0.002372
      776.500000       0.002333
      776.600000       0.002293
      776.700000       0.002253
      776.800000       0.002212
      776.900000       0.002170
      777.000000       0.002127
      777.100000       0.002083
      777.200000       0.002039
      777.300000       0.001993
      777.400000       0.001946
      777.500000       0.001899
      777.600000       0.001850
      777.700000       0.001800
      777.800000       0.001750
      777.900000       0.001698
      778.000000       0.001644
      778.100000       0.001590
      778.200000       0.001534
      778.300000       0.001477
      778.400000       0.001418
      778.500000       0.001352
      778.600000       0.001259
