  10  ,noaa_10_hirs_10.flt
Number of data points:
74
Wavenumber (cm-1)   Filter response
     1155.700000       0.000000
     1166.200000       0.004878
     1169.300000       0.007515
     1173.700000       0.009947
     1176.700000       0.012477
     1179.300000       0.012256
     1181.100000       0.020845
     1183.000000       0.034969
     1184.300000       0.050009
     1185.500000       0.069048
     1186.500000       0.087777
     1188.500000       0.149860
     1189.300000       0.178010
     1190.700000       0.269530
     1192.000000       0.354690
     1193.200000       0.466500
     1194.300000       0.585820
     1195.900000       0.705030
     1197.500000       0.806930
     1198.100000       0.856900
     1198.700000       0.904040
     1199.600000       0.928120
     1200.600000       0.950500
     1201.200000       0.968390
     1202.400000       0.980910
     1203.300000       0.993510
     1204.600000       1.000000
     1205.900000       0.991790
     1207.400000       0.977720
     1209.600000       0.949910
     1212.500000       0.912360
     1215.500000       0.878450
     1218.200000       0.847940
     1219.700000       0.836700
     1222.400000       0.830230
     1225.700000       0.816580
     1228.900000       0.804290
     1231.600000       0.798450
     1233.300000       0.800910
     1235.500000       0.808700
     1237.100000       0.815770
     1238.600000       0.811940
     1239.900000       0.794030
     1240.900000       0.768360
     1241.900000       0.745570
     1242.900000       0.700730
     1244.400000       0.644410
     1246.100000       0.592740
     1247.900000       0.548400
     1248.900000       0.529390
     1250.300000       0.514270
     1251.400000       0.516410
     1252.400000       0.523020
     1252.900000       0.535370
     1254.000000       0.587230
     1255.300000       0.634740
     1256.200000       0.665890
     1256.900000       0.671770
     1257.900000       0.626200
     1258.600000       0.595990
     1259.100000       0.523160
     1260.500000       0.369710
     1261.300000       0.242070
     1262.600000       0.165870
     1263.800000       0.092490
     1264.500000       0.063208
     1266.100000       0.036190
     1267.000000       0.021722
     1268.300000       0.013819
     1269.900000       0.009419
     1271.800000       0.009710
     1279.300000       0.005186
     1285.000000       0.001114
     1291.100000       0.000000
