   2  ,noaa_19_hirs_02.flt
Number of data points:
226
Wavenumber (cm-1)   Filter response
      668.900000       0.000000
      669.000000       0.000051
      669.100000       0.000109
      669.200000       0.000164
      669.300000       0.000223
      669.400000       0.000300
      669.500000       0.000398
      669.600000       0.000529
      669.700000       0.000702
      669.800000       0.000925
      669.900000       0.001208
      670.000000       0.001558
      670.100000       0.001994
      670.200000       0.002510
      670.300000       0.003121
      670.400000       0.003843
      670.500000       0.004678
      670.600000       0.005641
      670.700000       0.006750
      670.800000       0.007988
      670.900000       0.009389
      671.000000       0.010970
      671.100000       0.012715
      671.200000       0.014641
      671.300000       0.016814
      671.400000       0.019076
      671.500000       0.021665
      671.600000       0.024425
      671.700000       0.027517
      671.800000       0.030783
      671.900000       0.034222
      672.000000       0.038023
      672.100000       0.042186
      672.200000       0.047047
      672.300000       0.052677
      672.400000       0.059144
      672.500000       0.066508
      672.600000       0.074827
      672.700000       0.084151
      672.800000       0.094519
      672.900000       0.105963
      673.000000       0.118503
      673.100000       0.132151
      673.200000       0.146900
      673.300000       0.162724
      673.400000       0.179602
      673.500000       0.197490
      673.600000       0.216329
      673.700000       0.236050
      673.800000       0.256564
      673.900000       0.277773
      674.000000       0.299563
      674.100000       0.321820
      674.200000       0.344402
      674.300000       0.367166
      674.400000       0.389965
      674.500000       0.412643
      674.600000       0.435045
      674.700000       0.457015
      674.800000       0.478398
      674.900000       0.499050
      675.000000       0.518827
      675.100000       0.537601
      675.200000       0.555180
      675.300000       0.571499
      675.400000       0.586512
      675.500000       0.600157
      675.600000       0.612387
      675.700000       0.623183
      675.800000       0.632548
      675.900000       0.640499
      676.000000       0.647082
      676.100000       0.652370
      676.200000       0.656434
      676.300000       0.659366
      676.400000       0.661280
      676.500000       0.662294
      676.600000       0.662541
      676.700000       0.662155
      676.800000       0.661279
      676.900000       0.660046
      677.000000       0.658593
      677.100000       0.657020
      677.200000       0.655430
      677.300000       0.653992
      677.400000       0.652806
      677.500000       0.651964
      677.600000       0.651548
      677.700000       0.651624
      677.800000       0.652242
      677.900000       0.653452
      678.000000       0.655281
      678.100000       0.657749
      678.200000       0.660873
      678.300000       0.664659
      678.400000       0.669108
      678.500000       0.674213
      678.600000       0.679970
      678.700000       0.686361
      678.800000       0.693379
      678.900000       0.701001
      679.000000       0.709215
      679.100000       0.717998
      679.200000       0.727332
      679.300000       0.737195
      679.400000       0.747557
      679.500000       0.758389
      679.600000       0.769659
      679.700000       0.781324
      679.800000       0.793341
      679.900000       0.805660
      680.000000       0.818219
      680.100000       0.830912
      680.200000       0.843713
      680.300000       0.856546
      680.400000       0.869329
      680.500000       0.881976
      680.600000       0.894403
      680.700000       0.906517
      680.800000       0.918232
      680.900000       0.929454
      681.000000       0.940084
      681.100000       0.950049
      681.200000       0.959279
      681.300000       0.967703
      681.400000       0.975261
      681.500000       0.981892
      681.600000       0.987552
      681.700000       0.992196
      681.800000       0.995790
      681.900000       0.998309
      682.000000       0.999726
      682.100000       1.000000
      682.200000       0.999145
      682.300000       0.997151
      682.400000       0.994012
      682.500000       0.989718
      682.600000       0.984266
      682.700000       0.977654
      682.800000       0.969872
      682.900000       0.960891
      683.000000       0.950718
      683.100000       0.939363
      683.200000       0.926830
      683.300000       0.913120
      683.400000       0.898241
      683.500000       0.882201
      683.600000       0.865019
      683.700000       0.846713
      683.800000       0.827318
      683.900000       0.806876
      684.000000       0.785431
      684.100000       0.763020
      684.200000       0.739734
      684.300000       0.715657
      684.400000       0.690871
      684.500000       0.665474
      684.600000       0.639570
      684.700000       0.613270
      684.800000       0.586677
      684.900000       0.559907
      685.000000       0.533097
      685.100000       0.506370
      685.200000       0.479851
      685.300000       0.453636
      685.400000       0.427868
      685.500000       0.402655
      685.600000       0.378104
      685.700000       0.354308
      685.800000       0.331359
      685.900000       0.309331
      686.000000       0.288290
      686.100000       0.268311
      686.200000       0.249414
      686.300000       0.231630
      686.400000       0.214975
      686.500000       0.199453
      686.600000       0.185057
      686.700000       0.171760
      686.800000       0.159526
      686.900000       0.148314
      687.000000       0.138067
      687.100000       0.128721
      687.200000       0.120202
      687.300000       0.112429
      687.400000       0.105321
      687.500000       0.098793
      687.600000       0.092756
      687.700000       0.087131
      687.800000       0.081836
      687.900000       0.075800
      688.000000       0.067745
      688.100000       0.060706
      688.200000       0.054617
      688.300000       0.049391
      688.400000       0.044601
      688.500000       0.040251
      688.600000       0.036100
      688.700000       0.032148
      688.800000       0.028607
      688.900000       0.025269
      689.000000       0.022345
      689.100000       0.019521
      689.200000       0.017007
      689.300000       0.014720
      689.400000       0.012640
      689.500000       0.010788
      689.600000       0.009145
      689.700000       0.007668
      689.800000       0.006379
      689.900000       0.005258
      690.000000       0.004283
      690.100000       0.003455
      690.200000       0.002754
      690.300000       0.002158
      690.400000       0.001679
      690.500000       0.001289
      690.600000       0.000981
      690.700000       0.000742
      690.800000       0.000560
      690.900000       0.000423
      691.000000       0.000316
      691.100000       0.000232
      691.200000       0.000155
      691.300000       0.000073
      691.400000       0.000000
