  18  ,noaa_14_hirs_18.flt
Number of data points:
101
Wavenumber (cm-1)   Filter response
     2459.800000       0.000000
     2460.800000       0.000000
     2461.700000       0.000000
     2462.700000       0.000000
     2463.700000       0.000000
     2464.700000       0.000000
     2465.700000       0.000000
     2466.700000       0.000000
     2467.700000       0.000000
     2468.700000       0.000888
     2469.700000       0.000826
     2470.700000       0.004497
     2471.700000       0.007422
     2472.700000       0.009411
     2473.700000       0.009348
     2474.700000       0.012269
     2475.700000       0.013512
     2476.700000       0.017736
     2477.700000       0.026247
     2478.700000       0.034568
     2479.700000       0.038602
     2480.700000       0.048142
     2481.700000       0.058395
     2482.700000       0.067161
     2483.700000       0.081674
     2484.700000       0.098407
     2485.700000       0.116430
     2486.700000       0.142430
     2487.700000       0.171660
     2488.700000       0.205070
     2489.700000       0.239020
     2490.700000       0.277730
     2491.700000       0.321690
     2492.700000       0.370030
     2493.700000       0.412840
     2494.700000       0.458250
     2495.700000       0.506360
     2496.700000       0.555560
     2497.700000       0.604090
     2498.700000       0.648730
     2499.700000       0.688010
     2500.700000       0.731220
     2501.700000       0.767550
     2502.700000       0.801030
     2503.700000       0.833390
     2504.700000       0.862240
     2505.600000       0.886430
     2506.600000       0.914930
     2507.600000       0.936460
     2508.600000       0.955550
     2509.600000       0.972450
     2510.500000       0.986950
     2511.500000       0.991010
     2512.500000       1.000000
     2513.500000       0.999660
     2514.500000       0.999320
     2515.500000       0.994600
     2516.400000       0.984800
     2517.400000       0.974200
     2518.400000       0.960380
     2519.400000       0.939810
     2520.400000       0.923860
     2521.400000       0.895440
     2522.400000       0.869220
     2523.400000       0.831760
     2524.400000       0.786050
     2525.500000       0.738530
     2526.500000       0.687470
     2527.500000       0.626510
     2528.500000       0.564300
     2529.500000       0.487260
     2530.500000       0.432260
     2531.500000       0.377210
     2532.500000       0.316570
     2533.500000       0.260560
     2534.500000       0.217430
     2535.500000       0.184750
     2536.500000       0.151180
     2537.500000       0.117860
     2538.500000       0.095810
     2539.500000       0.081650
     2540.500000       0.066471
     2541.500000       0.056278
     2542.500000       0.044274
     2543.600000       0.037383
     2544.600000       0.030318
     2545.600000       0.023624
     2546.600000       0.020028
     2547.600000       0.016617
     2548.600000       0.010486
     2549.600000       0.009444
     2550.700000       0.007136
     2551.700000       0.005372
     2552.700000       0.005423
     2553.700000       0.003119
     2554.700000       0.003172
     2555.700000       0.001957
     2556.800000       0.002011
     2557.800000       0.001159
     2558.800000       0.000000
     2559.800000       0.000000
