2,   ECOSTRESS channel 2 from 20180318-ECOSTRESS_SRF_v3.csv
Number of data points:
94
Wavenumber (cm-1)   Filter response
     1078.882500       0.010352
     1080.030200       0.012611
     1081.180500       0.012418
     1082.333100       0.013374
     1083.488200       0.014328
     1084.645800       0.017942
     1085.805900       0.020155
     1086.968300       0.019891
     1088.133400       0.021629
     1089.300900       0.025503
     1090.471000       0.030619
     1091.643500       0.034981
     1092.818500       0.038738
     1093.996100       0.043432
     1095.176400       0.049391
     1096.359000       0.056068
     1097.544200       0.063352
     1098.732100       0.072552
     1099.922500       0.083062
     1101.115400       0.093847
     1102.311000       0.106665
     1103.509200       0.120122
     1104.709900       0.135058
     1105.913300       0.151691
     1107.119300       0.172342
     1108.328000       0.196618
     1109.539300       0.224668
     1110.753300       0.253760
     1111.969800       0.285433
     1113.189100       0.321560
     1114.411000       0.362140
     1115.635800       0.403985
     1116.863000       0.447797
     1118.093000       0.493319
     1119.325700       0.541406
     1120.561300       0.591528
     1121.799400       0.639506
     1123.040300       0.687446
     1124.284000       0.734279
     1125.530500       0.777370
     1126.779600       0.816155
     1128.031600       0.851818
     1129.286300       0.883296
     1130.543900       0.909452
     1131.804300       0.932169
     1133.067400       0.951508
     1134.333400       0.967593
     1135.602300       0.980385
     1136.873900       0.990311
     1138.148500       0.997031
     1139.425800       0.999638
     1140.706100       1.000000
     1141.989400       0.999078
     1143.275300       0.991563
     1144.564200       0.977742
     1145.856000       0.959472
     1147.150900       0.935849
     1148.448400       0.905816
     1149.749100       0.866705
     1151.052600       0.818796
     1152.359300       0.766860
     1153.668700       0.712183
     1154.981100       0.653133
     1156.296600       0.590487
     1157.615200       0.527517
     1158.936600       0.468958
     1160.261100       0.415500
     1161.588600       0.364604
     1162.919200       0.316884
     1164.252800       0.272351
     1165.589500       0.234107
     1166.929200       0.203883
     1168.272100       0.176597
     1169.618000       0.150702
     1170.967000       0.130064
     1172.319200       0.114161
     1173.674500       0.099203
     1175.033000       0.084562
     1176.394500       0.074129
     1177.759200       0.064904
     1179.127100       0.054163
     1180.498300       0.046815
     1181.872400       0.042237
     1183.249900       0.038773
     1184.630600       0.034669
     1186.014700       0.030247
     1187.401700       0.026549
     1188.792100       0.022901
     1190.185700       0.020069
     1191.582800       0.016727
     1192.982900       0.015499
     1194.386400       0.014513
     1195.793200       0.013793
     1197.203300       0.013190
