  13  ,noaa_16_hirs_13.flt
Number of data points:
73
Wavenumber (cm-1)   Filter response
     2162.000000       0.000000
     2166.600000       0.022002
     2167.100000       0.026009
     2167.800000       0.028014
     2168.300000       0.030015
     2168.700000       0.036019
     2169.400000       0.048026
     2169.800000       0.058017
     2170.300000       0.068011
     2170.800000       0.086014
     2171.300000       0.107990
     2171.700000       0.129970
     2172.200000       0.155920
     2172.600000       0.185860
     2173.100000       0.229820
     2173.500000       0.287760
     2174.100000       0.371680
     2174.800000       0.457590
     2175.300000       0.543490
     2175.900000       0.645390
     2176.200000       0.711380
     2176.700000       0.773360
     2176.900000       0.807340
     2177.300000       0.859350
     2177.700000       0.903360
     2178.100000       0.937390
     2178.500000       0.963410
     2178.900000       0.981480
     2179.300000       0.995800
     2179.800000       1.000000
     2180.300000       0.994170
     2180.600000       0.982320
     2181.100000       0.962510
     2181.400000       0.942670
     2181.900000       0.912840
     2182.400000       0.879020
     2183.100000       0.819240
     2184.100000       0.765760
     2185.000000       0.708320
     2185.700000       0.682850
     2186.400000       0.671330
     2186.900000       0.665540
     2187.700000       0.669840
     2188.100000       0.673990
     2189.100000       0.674210
     2190.000000       0.676400
     2190.600000       0.684770
     2191.500000       0.689250
     2192.400000       0.688040
     2193.000000       0.680590
     2193.700000       0.671100
     2194.400000       0.653320
     2195.000000       0.633200
     2195.900000       0.594900
     2197.600000       0.508980
     2199.700000       0.388260
     2201.900000       0.267420
     2203.100000       0.210710
     2203.900000       0.174130
     2204.500000       0.153800
     2205.300000       0.135530
     2205.900000       0.111030
     2206.500000       0.092645
     2207.500000       0.080469
     2208.000000       0.074366
     2208.400000       0.059970
     2209.100000       0.045583
     2209.700000       0.039421
     2210.400000       0.039499
     2210.900000       0.033308
     2211.600000       0.022934
     2212.700000       0.020894
     2217.000000       0.000000
