3,   Resampled Sentinel-3D SLSTR unpolarised FPA response at 87 K
Number of data points:
801
Wavenumber (cm-1)   Filter response
      714.285714       0.000000
      714.540907       0.000000
      714.796283       0.000000
      715.051841       0.000000
      715.307582       0.000003
      715.563506       0.000007
      715.819613       0.000004
      716.075904       0.000000
      716.332378       0.000000
      716.589036       0.000000
      716.845878       0.000000
      717.102904       0.000000
      717.360115       0.000000
      717.617510       0.000000
      717.875090       0.000000
      718.132855       0.000000
      718.390805       0.000000
      718.648940       0.000000
      718.907261       0.000000
      719.165768       0.000000
      719.424460       0.000000
      719.683339       0.000007
      719.942405       0.000016
      720.201656       0.000021
      720.461095       0.000022
      720.720721       0.000021
      720.980534       0.000020
      721.240534       0.000018
      721.500722       0.000017
      721.761097       0.000015
      722.021661       0.000009
      722.282412       0.000000
      722.543353       0.000000
      722.804481       0.000000
      723.065799       0.000000
      723.327306       0.000000
      723.589001       0.000000
      723.850887       0.000000
      724.112962       0.000000
      724.375226       0.000018
      724.637681       0.000037
      724.900326       0.000054
      725.163162       0.000067
      725.426188       0.000074
      725.689405       0.000072
      725.952813       0.000061
      726.216412       0.000041
      726.480203       0.000016
      726.744186       0.000000
      727.008361       0.000000
      727.272727       0.000000
      727.537286       0.000000
      727.802038       0.000000
      728.066982       0.000000
      728.332119       0.000000
      728.597450       0.000000
      728.862974       0.000000
      729.128691       0.000008
      729.394602       0.000032
      729.660708       0.000048
      729.927007       0.000055
      730.193501       0.000057
      730.460190       0.000060
      730.727073       0.000065
      730.994152       0.000071
      731.261426       0.000075
      731.528895       0.000075
      731.796561       0.000070
      732.064422       0.000064
      732.332479       0.000059
      732.600733       0.000058
      732.869183       0.000062
      733.137830       0.000069
      733.406674       0.000081
      733.675715       0.000094
      733.944954       0.000106
      734.214391       0.000116
      734.484025       0.000122
      734.753857       0.000123
      735.023888       0.000123
      735.294118       0.000126
      735.564546       0.000134
      735.835173       0.000148
      736.105999       0.000164
      736.377025       0.000176
      736.648250       0.000178
      736.919676       0.000170
      737.191301       0.000159
      737.463127       0.000151
      737.735153       0.000156
      738.007380       0.000177
      738.279808       0.000210
      738.552437       0.000242
      738.825268       0.000264
      739.098300       0.000271
      739.371534       0.000267
      739.644970       0.000261
      739.918609       0.000264
      740.192450       0.000277
      740.466494       0.000298
      740.740741       0.000319
      741.015191       0.000332
      741.289844       0.000334
      741.564702       0.000327
      741.839763       0.000320
      742.115028       0.000320
      742.390497       0.000336
      742.666172       0.000366
      742.942051       0.000404
      743.218135       0.000437
      743.494424       0.000454
      743.770919       0.000453
      744.047619       0.000441
      744.324525       0.000430
      744.601638       0.000432
      744.878957       0.000451
      745.156483       0.000485
      745.434215       0.000525
      745.712155       0.000561
      745.990302       0.000585
      746.268657       0.000600
      746.547219       0.000608
      746.825990       0.000616
      747.104968       0.000628
      747.384155       0.000648
      747.663551       0.000673
      747.943156       0.000697
      748.222970       0.000717
      748.502994       0.000728
      748.783227       0.000734
      749.063670       0.000742
      749.344324       0.000762
      749.625187       0.000799
      749.906262       0.000848
      750.187547       0.000899
      750.469043       0.000941
      750.750751       0.000970
      751.032670       0.000987
      751.314801       0.001002
      751.597144       0.001023
      751.879699       0.001052
      752.162467       0.001088
      752.445448       0.001123
      752.728641       0.001153
      753.012048       0.001178
      753.295669       0.001202
      753.579503       0.001234
      753.863551       0.001274
      754.147813       0.001322
      754.432290       0.001372
      754.716981       0.001418
      755.001888       0.001456
      755.287009       0.001489
      755.572346       0.001523
      755.857899       0.001561
      756.143667       0.001603
      756.429652       0.001646
      756.715853       0.001687
      757.002271       0.001722
      757.288906       0.001755
      757.575758       0.001793
      757.862827       0.001842
      758.150114       0.001904
      758.437619       0.001976
      758.725341       0.002048
      759.013283       0.002110
      759.301443       0.002156
      759.589821       0.002193
      759.878419       0.002234
      760.167237       0.002297
      760.456274       0.002387
      760.745531       0.002495
      761.035008       0.002601
      761.324705       0.002689
      761.614623       0.002755
      761.904762       0.002807
      762.195122       0.002865
      762.485703       0.002948
      762.776506       0.003064
      763.067531       0.003206
      763.358779       0.003355
      763.650248       0.003492
      763.941940       0.003609
      764.233856       0.003708
      764.525994       0.003804
      764.818356       0.003921
      765.110941       0.004071
      765.403750       0.004250
      765.696784       0.004437
      765.990042       0.004609
      766.283525       0.004757
      766.577233       0.004884
      766.871166       0.005010
      767.165324       0.005162
      767.459708       0.005357
      767.754319       0.005590
      768.049155       0.005842
      768.344218       0.006086
      768.639508       0.006307
      768.935025       0.006502
      769.230769       0.006688
      769.526741       0.006904
      769.822941       0.007177
      770.119369       0.007505
      770.416025       0.007860
      770.712909       0.008202
      771.010023       0.008505
      771.307366       0.008769
      771.604938       0.009023
      771.902740       0.009315
      772.200772       0.009683
      772.499034       0.010126
      772.797527       0.010614
      773.096250       0.011103
      773.395205       0.011561
      773.694391       0.011981
      773.993808       0.012394
      774.293457       0.012858
      774.593338       0.013427
      774.893452       0.014103
      775.193798       0.014842
      775.494378       0.015580
      775.795190       0.016261
      776.096236       0.016874
      776.397516       0.017466
      776.699029       0.018120
      777.000777       0.018906
      777.302759       0.019822
      777.604977       0.020807
      777.907429       0.021784
      778.210117       0.022690
      778.513040       0.023525
      778.816199       0.024363
      779.119595       0.025325
      779.423227       0.026491
      779.727096       0.027847
      780.031201       0.029303
      780.335544       0.030758
      780.640125       0.032139
      780.944943       0.033451
      781.250000       0.034801
      781.555295       0.036332
      781.860829       0.038114
      782.166601       0.040086
      782.472613       0.042121
      782.778865       0.044106
      783.085356       0.045988
      783.392088       0.047830
      783.699060       0.049801
      784.006272       0.052067
      784.313725       0.054659
      784.621420       0.057463
      784.929356       0.060345
      785.237534       0.063217
      785.545954       0.066072
      785.854617       0.069021
      786.163522       0.072248
      786.472670       0.075842
      786.782061       0.079700
      787.091696       0.083617
      787.401575       0.087493
      787.711698       0.091349
      788.022065       0.095287
      788.332676       0.099512
      788.643533       0.104173
      788.954635       0.109201
      789.265983       0.114383
      789.577576       0.119598
      789.889415       0.124951
      790.201501       0.130606
      790.513834       0.136692
      790.826414       0.143325
      791.139241       0.150395
      791.452315       0.157562
      791.765637       0.164602
      792.079208       0.171635
      792.393027       0.179005
      792.707095       0.186936
      793.021412       0.195456
      793.335978       0.204407
      793.650794       0.213368
      793.965859       0.222011
      794.281176       0.230562
      794.596742       0.239653
      794.912560       0.249792
      795.228628       0.260991
      795.544948       0.272865
      795.861520       0.284780
      796.178344       0.296131
      796.495420       0.306954
      796.812749       0.318059
      797.130331       0.330337
      797.448166       0.343914
      797.766254       0.358082
      798.084597       0.371886
      798.403194       0.384516
      798.722045       0.395957
      799.041151       0.407413
      799.360512       0.420374
      799.680128       0.435337
      800.000000       0.451466
      800.320128       0.467398
      800.640512       0.482103
      800.961153       0.495290
      801.282051       0.507993
      801.603206       0.522025
      801.924619       0.538230
      802.246290       0.555689
      802.568218       0.572529
      802.890405       0.587329
      803.212851       0.599759
      803.535556       0.610873
      803.858521       0.622842
      804.181745       0.636983
      804.505229       0.652543
      804.828974       0.667666
      805.152979       0.680948
      805.477245       0.692218
      805.801773       0.702432
      806.126562       0.713471
      806.451613       0.726758
      806.776926       0.741572
      807.102502       0.755751
      807.428341       0.767636
      807.754443       0.777123
      808.080808       0.785181
      808.407437       0.793291
      808.734331       0.802768
      809.061489       0.813191
      809.388911       0.822810
      809.716599       0.830572
      810.044552       0.836809
      810.372771       0.842570
      810.701257       0.848967
      811.030008       0.857058
      811.359026       0.866586
      811.688312       0.875727
      812.017864       0.883343
      812.347685       0.889747
      812.677773       0.895677
      813.008130       0.901592
      813.338756       0.907899
      813.669650       0.914539
      814.000814       0.920261
      814.332248       0.924410
      814.663951       0.927671
      814.995925       0.930653
      815.328170       0.933691
      815.660685       0.937303
      815.993472       0.941790
      816.326531       0.946293
      816.659861       0.950046
      816.993464       0.953558
      817.327340       0.957076
      817.661488       0.960289
      817.995910       0.963240
      818.330606       0.966165
      818.665575       0.968510
      819.000819       0.969582
      819.336338       0.969979
      819.672131       0.970202
      820.008200       0.970179
      820.344545       0.970306
      820.681165       0.970889
      821.018062       0.971321
      821.355236       0.970939
      821.692687       0.970572
      822.030415       0.971019
      822.368421       0.972011
      822.706705       0.973570
      823.045267       0.975538
      823.384109       0.976948
      823.723229       0.977075
      824.062629       0.976631
      824.402308       0.976410
      824.742268       0.976251
      825.082508       0.976486
      825.423029       0.977230
      825.763832       0.977654
      826.104915       0.977403
      826.446281       0.977275
      826.787929       0.977934
      827.129859       0.979170
      827.472073       0.981304
      827.814570       0.984310
      828.157350       0.986989
      828.500414       0.988704
      828.843763       0.989939
      829.187396       0.991170
      829.531315       0.992264
      829.875519       0.993381
      830.220008       0.994304
      830.564784       0.994148
      830.909846       0.993093
      831.255195       0.992345
      831.600832       0.992671
      831.946755       0.993930
      832.292967       0.996002
      832.639467       0.998259
      832.986256       0.999427
      833.333333       0.999330
      833.680700       0.999005
      834.028357       0.999209
      834.376304       0.999701
      834.724541       1.000108
      835.073069       0.999527
      835.421888       0.997025
      835.770999       0.993413
      836.120401       0.990312
      836.470096       0.988433
      836.820084       0.987593
      837.170364       0.987643
      837.520938       0.987537
      837.871806       0.986192
      838.222967       0.984448
      838.574423       0.983566
      838.926174       0.983648
      839.278221       0.984021
      839.630563       0.984007
      839.983200       0.982425
      840.336134       0.979067
      840.689365       0.975552
      841.042893       0.973019
      841.396719       0.971390
      841.750842       0.970160
      842.105263       0.968509
      842.459983       0.965238
      842.815002       0.960743
      843.170320       0.956975
      843.525938       0.954932
      843.881857       0.954390
      844.238075       0.954443
      844.594595       0.953488
      844.951415       0.950090
      845.308538       0.945024
      845.665962       0.940168
      846.023689       0.936347
      846.381718       0.933615
      846.740051       0.931177
      847.098687       0.927439
      847.457627       0.921700
      847.816872       0.915604
      848.176421       0.910578
      848.536275       0.906706
      848.896435       0.903581
      849.256900       0.899965
      849.617672       0.894408
      849.978751       0.887097
      850.340136       0.879682
      850.701829       0.872888
      851.063830       0.866797
      851.426139       0.860762
      851.788756       0.852958
      852.151683       0.842469
      852.514919       0.830632
      852.878465       0.819274
      853.242321       0.809037
      853.606487       0.800063
      853.970965       0.791176
      854.335754       0.780465
      854.700855       0.767438
      855.066268       0.753234
      855.431993       0.738918
      855.798032       0.725262
      856.164384       0.712568
      856.531049       0.699598
      856.898029       0.685095
      857.265324       0.669025
      857.632933       0.651985
      858.000858       0.634835
      858.369099       0.618908
      858.737656       0.604346
      859.106529       0.589602
      859.475720       0.573398
      859.845228       0.555439
      860.215054       0.536450
      860.585198       0.518161
      860.955661       0.502031
      861.326443       0.487377
      861.697544       0.472431
      862.068966       0.455917
      862.440707       0.437756
      862.812770       0.419575
      863.185153       0.403595
      863.557858       0.390164
      863.930886       0.377385
      864.304235       0.363349
      864.677907       0.347481
      865.051903       0.331073
      865.426222       0.316347
      865.800866       0.304272
      866.175834       0.293515
      866.551127       0.282042
      866.926745       0.268884
      867.302689       0.254804
      867.678959       0.241815
      868.055556       0.231234
      868.432479       0.222355
      868.809731       0.213344
      869.187310       0.203061
      869.565217       0.191832
      869.943454       0.181176
      870.322019       0.172416
      870.700914       0.165330
      871.080139       0.158426
      871.459695       0.150528
      871.839582       0.141700
      872.219799       0.133090
      872.600349       0.125896
      872.981231       0.120184
      873.362445       0.114904
      873.743993       0.109054
      874.125874       0.102528
      874.508089       0.096031
      874.890639       0.090466
      875.273523       0.086036
      875.656743       0.082077
      876.040298       0.077808
      876.424189       0.073055
      876.808417       0.068261
      877.192982       0.064066
      877.577885       0.060671
      877.963126       0.057648
      878.348704       0.054457
      878.734622       0.050972
      879.120879       0.047469
      879.507476       0.044339
      879.894413       0.041731
      880.281690       0.039401
      880.669309       0.037034
      881.057269       0.034538
      881.445571       0.032057
      881.834215       0.029806
      882.223202       0.027875
      882.612533       0.026121
      883.002208       0.024361
      883.392226       0.022559
      883.782589       0.020811
      884.173298       0.019230
      884.564352       0.017851
      884.955752       0.016583
      885.347499       0.015331
      885.739593       0.014089
      886.132034       0.012911
      886.524823       0.011849
      886.917960       0.010905
      887.311446       0.010026
      887.705282       0.009176
      888.099467       0.008369
      888.494003       0.007627
      888.888889       0.006958
      889.284126       0.006351
      889.679715       0.005782
      890.075656       0.005244
      890.471950       0.004748
      890.868597       0.004301
      891.265597       0.003896
      891.662951       0.003517
      892.060660       0.003154
      892.458724       0.002814
      892.857143       0.002511
      893.255918       0.002256
      893.655049       0.002039
      894.054537       0.001842
      894.454383       0.001649
      894.854586       0.001463
      895.255148       0.001310
      895.656068       0.001201
      896.057348       0.001114
      896.458987       0.001022
      896.860987       0.000915
      897.263347       0.000805
      897.666068       0.000709
      898.069151       0.000635
      898.472597       0.000579
      898.876404       0.000532
      899.280576       0.000488
      899.685110       0.000446
      900.090009       0.000416
      900.495272       0.000400
      900.900901       0.000394
      901.306895       0.000383
      901.713255       0.000361
      902.119982       0.000336
      902.527076       0.000314
      902.934537       0.000290
      903.342367       0.000262
      903.750565       0.000234
      904.159132       0.000218
      904.568069       0.000215
      904.977376       0.000214
      905.387053       0.000207
      905.797101       0.000193
      906.207522       0.000181
      906.618314       0.000176
      907.029478       0.000179
      907.441016       0.000185
      907.852928       0.000189
      908.265213       0.000189
      908.677874       0.000187
      909.090909       0.000189
      909.504320       0.000194
      909.918107       0.000193
      910.332271       0.000183
      910.746812       0.000160
      911.161731       0.000133
      911.577028       0.000111
      911.992704       0.000099
      912.408759       0.000095
      912.825194       0.000092
      913.242009       0.000083
      913.659205       0.000073
      914.076782       0.000066
      914.494742       0.000064
      914.913083       0.000063
      915.331808       0.000059
      915.750916       0.000055
      916.170408       0.000059
      916.590284       0.000074
      917.010546       0.000091
      917.431193       0.000096
      917.852226       0.000083
      918.273646       0.000062
      918.695452       0.000046
      919.117647       0.000041
      919.540230       0.000042
      919.963201       0.000042
      920.386562       0.000039
      920.810313       0.000034
      921.234454       0.000034
      921.658986       0.000039
      922.083910       0.000045
      922.509225       0.000045
      922.934933       0.000033
      923.361034       0.000014
      923.787529       0.000000
      924.214418       0.000000
      924.641701       0.000000
      925.069380       0.000000
      925.497455       0.000000
      925.925926       0.000000
      926.354794       0.000004
      926.784059       0.000007
      927.213723       0.000011
      927.643785       0.000014
      928.074246       0.000015
      928.505107       0.000020
      928.936368       0.000031
      929.368030       0.000039
      929.800093       0.000041
      930.232558       0.000038
      930.665426       0.000032
      931.098696       0.000019
      931.532371       0.000000
      931.966449       0.000000
      932.400932       0.000000
      932.835821       0.000000
      933.271115       0.000009
      933.706816       0.000021
      934.142924       0.000023
      934.579439       0.000021
      935.016363       0.000025
      935.453695       0.000034
      935.891437       0.000040
      936.329588       0.000036
      936.768150       0.000027
      937.207123       0.000023
      937.646507       0.000023
      938.086304       0.000024
      938.526513       0.000024
      938.967136       0.000022
      939.408173       0.000021
      939.849624       0.000029
      940.291490       0.000045
      940.733772       0.000056
      941.176471       0.000051
      941.619586       0.000036
      942.063118       0.000024
      942.507069       0.000020
      942.951438       0.000024
      943.396226       0.000029
      943.841435       0.000036
      944.287063       0.000052
      944.733113       0.000075
      945.179584       0.000099
      945.626478       0.000117
      946.073794       0.000123
      946.521533       0.000123
      946.969697       0.000130
      947.418285       0.000148
      947.867299       0.000166
      948.316738       0.000174
      948.766603       0.000178
      949.216896       0.000186
      949.667616       0.000194
      950.118765       0.000197
      950.570342       0.000199
      951.022349       0.000203
      951.474786       0.000207
      951.927653       0.000216
      952.380952       0.000231
      952.834683       0.000249
      953.288847       0.000265
      953.743443       0.000275
      954.198473       0.000291
      954.653938       0.000315
      955.109838       0.000339
      955.566173       0.000349
      956.022945       0.000344
      956.480153       0.000338
      956.937799       0.000339
      957.395883       0.000345
      957.854406       0.000353
      958.313368       0.000364
      958.772771       0.000379
      959.232614       0.000396
      959.692898       0.000407
      960.153625       0.000403
      960.614793       0.000389
      961.076406       0.000376
      961.538462       0.000371
      962.000962       0.000367
      962.463908       0.000362
      962.927299       0.000363
      963.391137       0.000374
      963.855422       0.000390
      964.320154       0.000401
      964.785335       0.000405
      965.250965       0.000403
      965.717045       0.000402
      966.183575       0.000409
      966.650556       0.000418
      967.117988       0.000415
      967.585873       0.000402
      968.054211       0.000396
      968.523002       0.000404
      968.992248       0.000420
      969.461949       0.000435
      969.932105       0.000447
      970.402717       0.000457
      970.873786       0.000459
      971.345313       0.000446
      971.817298       0.000411
      972.289742       0.000368
      972.762646       0.000346
      973.236010       0.000359
      973.709834       0.000386
      974.184121       0.000397
      974.658869       0.000389
      975.134081       0.000386
      975.609756       0.000401
      976.085896       0.000415
      976.562500       0.000408
      977.039570       0.000388
      977.517107       0.000377
      977.995110       0.000375
      978.473581       0.000370
      978.952521       0.000359
      979.431929       0.000349
      979.911808       0.000351
      980.392157       0.000358
      980.872977       0.000365
      981.354269       0.000367
      981.836033       0.000362
      982.318271       0.000352
      982.800983       0.000342
      983.284169       0.000330
      983.767831       0.000313
      984.251969       0.000300
      984.736583       0.000301
      985.221675       0.000317
      985.707245       0.000332
      986.193294       0.000333
      986.679822       0.000325
      987.166831       0.000319
      987.654321       0.000317
      988.142292       0.000313
      988.630746       0.000302
      989.119683       0.000287
      989.609104       0.000279
      990.099010       0.000280
      990.589401       0.000280
      991.080278       0.000279
      991.571641       0.000286
      992.063492       0.000304
      992.555831       0.000322
      993.048659       0.000327
      993.541977       0.000316
      994.035785       0.000293
      994.530085       0.000278
      995.024876       0.000284
      995.520159       0.000300
      996.015936       0.000304
      996.512207       0.000294
      997.008973       0.000284
      997.506234       0.000281
      998.003992       0.000277
      998.502247       0.000275
      999.000999       0.000282
      999.500250       0.000294
     1000.000000       0.000297
