   5  ,noaa_17_hirs_05.flt
Number of data points:
87
Wavenumber (cm-1)   Filter response
      687.000000       0.000000
      687.460000       0.000878
      689.620000       0.003049
      691.780000       0.005478
      693.950000       0.008176
      696.110000       0.011154
      696.710000       0.013590
      697.210000       0.015005
      697.710000       0.015983
      698.210000       0.015568
      698.710000       0.016788
      699.210000       0.018986
      699.710000       0.024844
      700.210000       0.032521
      700.710000       0.040347
      701.210000       0.049690
      701.710000       0.058584
      702.210000       0.069799
      702.710000       0.083913
      703.210000       0.105770
      703.710000       0.134750
      704.210000       0.171500
      704.710000       0.215760
      705.210000       0.265810
      705.710000       0.327200
      706.210000       0.401420
      706.710000       0.482730
      707.210000       0.561770
      707.710000       0.641510
      708.210000       0.718990
      708.710000       0.784770
      709.210000       0.838850
      709.710000       0.885110
      710.210000       0.923370
      710.710000       0.950100
      711.210000       0.971090
      711.710000       0.983760
      712.210000       0.985950
      712.710000       0.983870
      713.210000       0.983690
      713.710000       0.987270
      714.210000       0.990820
      714.710000       0.989870
      715.210000       0.987690
      715.710000       0.993910
      716.210000       1.000000
      716.710000       0.999150
      717.210000       0.996950
      717.710000       0.994320
      718.210000       0.983710
      718.710000       0.967350
      719.210000       0.955350
      719.710000       0.938990
      720.210000       0.914740
      720.710000       0.885630
      721.210000       0.851670
      721.710000       0.810210
      722.210000       0.761070
      722.710000       0.707460
      723.210000       0.647930
      723.710000       0.585750
      724.210000       0.522070
      724.710000       0.457270
      725.210000       0.394920
      725.710000       0.337830
      726.210000       0.285740
      726.710000       0.239270
      727.210000       0.198300
      727.710000       0.162220
      728.210000       0.132530
      728.710000       0.112860
      729.210000       0.096251
      729.710000       0.081299
      730.210000       0.071035
      730.710000       0.061149
      731.210000       0.048636
      731.710000       0.037452
      732.210000       0.031167
      732.710000       0.025310
      733.210000       0.020702
      733.710000       0.019654
      734.610000       0.016520
      736.770000       0.013069
      738.940000       0.009458
      741.100000       0.005704
      743.260000       0.001791
      743.500000       0.000000
