16, GOES 13.3um ABI FM2 SRF CWG processed March 10, 2016
Number of data points:
656
Wavenumber (cm-1)   Filter response
      718.500000       0.001020
      718.600000       0.001062
      718.700000       0.001106
      718.800000       0.001149
      718.900000       0.001195
      719.000000       0.001240
      719.100000       0.001287
      719.200000       0.001335
      719.300000       0.001383
      719.400000       0.001433
      719.500000       0.001483
      719.600000       0.001535
      719.700000       0.001589
      719.800000       0.001643
      719.900000       0.001699
      720.000000       0.001756
      720.100000       0.001814
      720.200000       0.001874
      720.300000       0.001935
      720.400000       0.001997
      720.500000       0.002060
      720.600000       0.002123
      720.700000       0.002188
      720.800000       0.002253
      720.900000       0.002319
      721.000000       0.002385
      721.100000       0.002452
      721.200000       0.002520
      721.300000       0.002589
      721.400000       0.002659
      721.500000       0.002731
      721.600000       0.002804
      721.700000       0.002879
      721.800000       0.002957
      721.900000       0.003038
      722.000000       0.003123
      722.100000       0.003211
      722.200000       0.003304
      722.300000       0.003402
      722.400000       0.003504
      722.500000       0.003613
      722.600000       0.003727
      722.700000       0.003847
      722.800000       0.003975
      722.900000       0.004107
      723.000000       0.004248
      723.100000       0.004394
      723.200000       0.004546
      723.300000       0.004706
      723.400000       0.004871
      723.500000       0.005045
      723.600000       0.005225
      723.700000       0.005412
      723.800000       0.005607
      723.900000       0.005810
      724.000000       0.006021
      724.100000       0.006240
      724.200000       0.006468
      724.300000       0.006706
      724.400000       0.006954
      724.500000       0.007212
      724.600000       0.007481
      724.700000       0.007763
      724.800000       0.008057
      724.900000       0.008360
      725.000000       0.008679
      725.100000       0.009010
      725.200000       0.009358
      725.300000       0.009723
      725.400000       0.010103
      725.500000       0.010502
      725.600000       0.010917
      725.700000       0.011350
      725.800000       0.011803
      725.900000       0.012274
      726.000000       0.012766
      726.100000       0.013279
      726.200000       0.013813
      726.300000       0.014373
      726.400000       0.014956
      726.500000       0.015564
      726.600000       0.016199
      726.700000       0.016877
      726.800000       0.017595
      726.900000       0.018347
      727.000000       0.019137
      727.100000       0.019965
      727.200000       0.020830
      727.300000       0.021739
      727.400000       0.022691
      727.500000       0.023686
      727.600000       0.024729
      727.700000       0.025829
      727.800000       0.026987
      727.900000       0.028196
      728.000000       0.029458
      728.100000       0.030779
      728.200000       0.032158
      728.300000       0.033602
      728.400000       0.035120
      728.500000       0.036706
      728.600000       0.038361
      728.700000       0.040097
      728.800000       0.041919
      728.900000       0.043837
      729.000000       0.045845
      729.100000       0.047960
      729.200000       0.050167
      729.300000       0.052483
      729.400000       0.054916
      729.500000       0.057464
      729.600000       0.060130
      729.700000       0.062925
      729.800000       0.065846
      729.900000       0.068905
      730.000000       0.072101
      730.100000       0.075430
      730.200000       0.078908
      730.300000       0.082528
      730.400000       0.086295
      730.500000       0.090210
      730.600000       0.094276
      730.700000       0.098499
      730.800000       0.102885
      730.900000       0.107437
      731.000000       0.112147
      731.100000       0.117046
      731.200000       0.122116
      731.300000       0.127365
      731.400000       0.132820
      731.500000       0.138469
      731.600000       0.144328
      731.700000       0.150411
      731.800000       0.156682
      731.900000       0.163181
      732.000000       0.169891
      732.100000       0.176816
      732.200000       0.183967
      732.300000       0.191327
      732.400000       0.198876
      732.500000       0.206630
      732.600000       0.214580
      732.700000       0.222667
      732.800000       0.230999
      732.900000       0.239471
      733.000000       0.248013
      733.100000       0.256770
      733.200000       0.265599
      733.300000       0.274482
      733.400000       0.283536
      733.500000       0.292599
      733.600000       0.301681
      733.700000       0.310891
      733.800000       0.320134
      733.900000       0.329383
      734.000000       0.338658
      734.100000       0.347990
      734.200000       0.357334
      734.300000       0.366638
      734.400000       0.375956
      734.500000       0.385328
      734.600000       0.394710
      734.700000       0.404137
      734.800000       0.413574
      734.900000       0.423106
      735.000000       0.432656
      735.100000       0.442252
      735.200000       0.451980
      735.300000       0.461695
      735.400000       0.471405
      735.500000       0.481205
      735.600000       0.491091
      735.700000       0.500752
      735.800000       0.510496
      735.900000       0.520341
      736.000000       0.529984
      736.100000       0.539515
      736.200000       0.549059
      736.300000       0.558473
      736.400000       0.567728
      736.500000       0.576868
      736.600000       0.585893
      736.700000       0.594839
      736.800000       0.603401
      736.900000       0.611854
      737.000000       0.620172
      737.100000       0.628152
      737.200000       0.635896
      737.300000       0.643511
      737.400000       0.650913
      737.500000       0.658170
      737.600000       0.665060
      737.700000       0.671813
      737.800000       0.678574
      737.900000       0.685134
      738.000000       0.691421
      738.100000       0.697594
      738.200000       0.703823
      738.300000       0.709879
      738.400000       0.715864
      738.500000       0.721771
      738.600000       0.727710
      738.700000       0.733584
      738.800000       0.739267
      738.900000       0.744915
      739.000000       0.750561
      739.100000       0.756013
      739.200000       0.761251
      739.300000       0.766390
      739.400000       0.770668
      739.500000       0.773923
      739.600000       0.777162
      739.700000       0.780242
      739.800000       0.783221
      739.900000       0.786007
      740.000000       0.788742
      740.100000       0.791426
      740.200000       0.794005
      740.300000       0.796552
      740.400000       0.799060
      740.500000       0.801657
      740.600000       0.804240
      740.700000       0.806843
      740.800000       0.809457
      740.900000       0.812071
      741.000000       0.814711
      741.100000       0.817356
      741.200000       0.819954
      741.300000       0.822518
      741.400000       0.825018
      741.500000       0.827439
      741.600000       0.829763
      741.700000       0.831996
      741.800000       0.834128
      741.900000       0.836164
      742.000000       0.838171
      742.100000       0.840046
      742.200000       0.841916
      742.300000       0.843788
      742.400000       0.845668
      742.500000       0.847551
      742.600000       0.849485
      742.700000       0.851460
      742.800000       0.853474
      742.900000       0.855403
      743.000000       0.857406
      743.100000       0.859547
      743.200000       0.861555
      743.300000       0.863594
      743.400000       0.865627
      743.500000       0.867620
      743.600000       0.869577
      743.700000       0.871424
      743.800000       0.873233
      743.900000       0.874899
      744.000000       0.876456
      744.100000       0.878009
      744.200000       0.879531
      744.300000       0.881003
      744.400000       0.882502
      744.500000       0.884008
      744.600000       0.885586
      744.700000       0.887261
      744.800000       0.889018
      744.900000       0.890939
      745.000000       0.892979
      745.100000       0.895140
      745.200000       0.897066
      745.300000       0.898862
      745.400000       0.900639
      745.500000       0.902384
      745.600000       0.903987
      745.700000       0.905401
      745.800000       0.906707
      745.900000       0.907869
      746.000000       0.908724
      746.100000       0.909586
      746.200000       0.910318
      746.300000       0.911023
      746.400000       0.911737
      746.500000       0.912522
      746.600000       0.913350
      746.700000       0.914442
      746.800000       0.915607
      746.900000       0.917065
      747.000000       0.918696
      747.100000       0.920464
      747.200000       0.922285
      747.300000       0.924111
      747.400000       0.925845
      747.500000       0.927466
      747.600000       0.928869
      747.700000       0.930064
      747.800000       0.931014
      747.900000       0.931602
      748.000000       0.932038
      748.100000       0.932425
      748.200000       0.932748
      748.300000       0.933106
      748.400000       0.933536
      748.500000       0.934043
      748.600000       0.934862
      748.700000       0.935912
      748.800000       0.937013
      748.900000       0.938552
      749.000000       0.940284
      749.100000       0.942081
      749.200000       0.943929
      749.300000       0.945675
      749.400000       0.947273
      749.500000       0.948618
      749.600000       0.949578
      749.700000       0.950337
      749.800000       0.950832
      749.900000       0.951087
      750.000000       0.951166
      750.100000       0.951186
      750.200000       0.951180
      750.300000       0.951295
      750.400000       0.951597
      750.500000       0.952130
      750.600000       0.952844
      750.700000       0.953958
      750.800000       0.955327
      750.900000       0.956929
      751.000000       0.958695
      751.100000       0.960527
      751.200000       0.962366
      751.300000       0.964043
      751.400000       0.965546
      751.500000       0.966758
      751.600000       0.967674
      751.700000       0.968274
      751.800000       0.968590
      751.900000       0.968658
      752.000000       0.968549
      752.100000       0.968372
      752.200000       0.968102
      752.300000       0.968203
      752.400000       0.970625
      752.500000       0.973861
      752.600000       0.977350
      752.700000       0.980443
      752.800000       0.982809
      752.900000       0.984509
      753.000000       0.985979
      753.100000       0.987589
      753.200000       0.989845
      753.300000       0.992892
      753.400000       0.996080
      753.500000       0.998620
      753.600000       0.999888
      753.700000       0.999671
      753.800000       0.997922
      753.900000       0.994937
      754.000000       0.991361
      754.100000       0.987885
      754.200000       0.985018
      754.300000       0.982950
      754.400000       0.981194
      754.500000       0.979218
      754.600000       0.976561
      754.700000       0.973102
      754.800000       0.968805
      754.900000       0.964224
      755.000000       0.959952
      755.100000       0.957698
      755.200000       0.956124
      755.300000       0.954457
      755.400000       0.952684
      755.500000       0.950676
      755.600000       0.948473
      755.700000       0.946104
      755.800000       0.943501
      755.900000       0.940987
      756.000000       0.938463
      756.100000       0.936078
      756.200000       0.933943
      756.300000       0.932044
      756.400000       0.930411
      756.500000       0.929053
      756.600000       0.927946
      756.700000       0.926952
      756.800000       0.926142
      756.900000       0.925284
      757.000000       0.924436
      757.100000       0.923327
      757.200000       0.921982
      757.300000       0.920309
      757.400000       0.918545
      757.500000       0.916591
      757.600000       0.914383
      757.700000       0.912180
      757.800000       0.909861
      757.900000       0.907489
      758.000000       0.905225
      758.100000       0.903114
      758.200000       0.901163
      758.300000       0.899400
      758.400000       0.897840
      758.500000       0.896450
      758.600000       0.895235
      758.700000       0.894086
      758.800000       0.892905
      758.900000       0.891882
      759.000000       0.890785
      759.100000       0.889506
      759.200000       0.887799
      759.300000       0.886344
      759.400000       0.885096
      759.500000       0.883851
      759.600000       0.882949
      759.700000       0.882175
      759.800000       0.881610
      759.900000       0.881268
      760.000000       0.880964
      760.100000       0.881029
      760.200000       0.881232
      760.300000       0.881662
      760.400000       0.882356
      760.500000       0.883075
      760.600000       0.884203
      760.700000       0.885467
      760.800000       0.886893
      760.900000       0.888653
      761.000000       0.890494
      761.100000       0.892543
      761.200000       0.894673
      761.300000       0.897075
      761.400000       0.899672
      761.500000       0.902351
      761.600000       0.905227
      761.700000       0.908176
      761.800000       0.911237
      761.900000       0.914426
      762.000000       0.917541
      762.100000       0.920800
      762.200000       0.924046
      762.300000       0.927335
      762.400000       0.930600
      762.500000       0.933815
      762.600000       0.936870
      762.700000       0.939840
      762.800000       0.942439
      762.900000       0.944878
      763.000000       0.947225
      763.100000       0.949021
      763.200000       0.950500
      763.300000       0.951195
      763.400000       0.951392
      763.500000       0.951049
      763.600000       0.949668
      763.700000       0.948067
      763.800000       0.945685
      763.900000       0.942678
      764.000000       0.939326
      764.100000       0.935232
      764.200000       0.930512
      764.300000       0.925559
      764.400000       0.919977
      764.500000       0.913821
      764.600000       0.907515
      764.700000       0.900666
      764.800000       0.893047
      764.900000       0.885271
      765.000000       0.877193
      765.100000       0.868282
      765.200000       0.858854
      765.300000       0.849120
      765.400000       0.838998
      765.500000       0.828246
      765.600000       0.817073
      765.700000       0.805721
      765.800000       0.794036
      765.900000       0.781850
      766.000000       0.769266
      766.100000       0.756812
      766.200000       0.744113
      766.300000       0.730774
      766.400000       0.717496
      766.500000       0.704371
      766.600000       0.690829
      766.700000       0.676952
      766.800000       0.663292
      766.900000       0.649588
      767.000000       0.635625
      767.100000       0.621537
      767.200000       0.607788
      767.300000       0.594041
      767.400000       0.579982
      767.500000       0.566096
      767.600000       0.552493
      767.700000       0.538844
      767.800000       0.525023
      767.900000       0.511407
      768.000000       0.498026
      768.100000       0.484587
      768.200000       0.471232
      768.300000       0.458030
      768.400000       0.444885
      768.500000       0.431782
      768.600000       0.418819
      768.700000       0.405905
      768.800000       0.393104
      768.900000       0.380475
      769.000000       0.367832
      769.100000       0.355288
      769.200000       0.342979
      769.300000       0.330804
      769.400000       0.318610
      769.500000       0.306717
      769.600000       0.294984
      769.700000       0.283390
      769.800000       0.272082
      769.900000       0.261037
      770.000000       0.250206
      770.100000       0.239612
      770.200000       0.229348
      770.300000       0.219412
      770.400000       0.209755
      770.500000       0.200458
      770.600000       0.191511
      770.700000       0.182905
      770.800000       0.174637
      770.900000       0.166684
      771.000000       0.159074
      771.100000       0.151795
      771.200000       0.144836
      771.300000       0.138171
      771.400000       0.131773
      771.500000       0.125644
      771.600000       0.119758
      771.700000       0.114123
      771.800000       0.108714
      771.900000       0.103527
      772.000000       0.098535
      772.100000       0.093777
      772.200000       0.089220
      772.300000       0.084880
      772.400000       0.080763
      772.500000       0.076833
      772.600000       0.073126
      772.700000       0.069640
      772.800000       0.066349
      772.900000       0.063233
      773.000000       0.060296
      773.100000       0.057543
      773.200000       0.054920
      773.300000       0.052428
      773.400000       0.050070
      773.500000       0.047815
      773.600000       0.045667
      773.700000       0.043634
      773.800000       0.041689
      773.900000       0.039770
      774.000000       0.037896
      774.100000       0.036125
      774.200000       0.034453
      774.300000       0.032865
      774.400000       0.031355
      774.500000       0.029952
      774.600000       0.028633
      774.700000       0.027376
      774.800000       0.026172
      774.900000       0.025019
      775.000000       0.023918
      775.100000       0.022867
      775.200000       0.021859
      775.300000       0.020899
      775.400000       0.019968
      775.500000       0.019058
      775.600000       0.018193
      775.700000       0.017373
      775.800000       0.016595
      775.900000       0.015859
      776.000000       0.015160
      776.100000       0.014500
      776.200000       0.013878
      776.300000       0.013289
      776.400000       0.012736
      776.500000       0.012210
      776.600000       0.011716
      776.700000       0.011250
      776.800000       0.010807
      776.900000       0.010391
      777.000000       0.009998
      777.100000       0.009634
      777.200000       0.009287
      777.300000       0.008955
      777.400000       0.008641
      777.500000       0.008342
      777.600000       0.008055
      777.700000       0.007781
      777.800000       0.007518
      777.900000       0.007266
      778.000000       0.007025
      778.100000       0.006792
      778.200000       0.006570
      778.300000       0.006356
      778.400000       0.006150
      778.500000       0.005952
      778.600000       0.005761
      778.700000       0.005577
      778.800000       0.005400
      778.900000       0.005229
      779.000000       0.005065
      779.100000       0.004905
      779.200000       0.004752
      779.300000       0.004604
      779.400000       0.004461
      779.500000       0.004323
      779.600000       0.004192
      779.700000       0.004065
      779.800000       0.003944
      779.900000       0.003828
      780.000000       0.003718
      780.100000       0.003613
      780.200000       0.003512
      780.300000       0.003416
      780.400000       0.003325
      780.500000       0.003238
      780.600000       0.003154
      780.700000       0.003073
      780.800000       0.002995
      780.900000       0.002918
      781.000000       0.002844
      781.100000       0.002770
      781.200000       0.002697
      781.300000       0.002625
      781.400000       0.002551
      781.500000       0.002479
      781.600000       0.002406
      781.700000       0.002333
      781.800000       0.002260
      781.900000       0.002188
      782.000000       0.002116
      782.100000       0.002046
      782.200000       0.001976
      782.300000       0.001909
      782.400000       0.001845
      782.500000       0.001783
      782.600000       0.001725
      782.700000       0.001669
      782.800000       0.001617
      782.900000       0.001568
      783.000000       0.001522
      783.100000       0.001478
      783.200000       0.001438
      783.300000       0.001398
      783.400000       0.001360
      783.500000       0.001323
      783.600000       0.001287
      783.700000       0.001249
      783.800000       0.001212
      783.900000       0.001165
      784.000000       0.000971
