5,   channel 5 SRF from file SRF_SIRS-A_Ch05.asc received July 2020 from Andrzej Kloneki
Number of data points:
281
Wavenumber (cm-1)   Filter response
      692.300000       0.000000
      692.350000       0.000000
      692.400000       0.000000
      692.450000       0.000000
      692.500000       0.000000
      692.550000       0.000000
      692.600000       0.000000
      692.650000       0.000000
      692.700000       0.000000
      692.750000       0.000000
      692.800000       0.000000
      692.850000       0.000000
      692.900000       0.000000
      692.950000       0.000000
      693.000000       0.000000
      693.050000       0.000000
      693.100000       0.000000
      693.150000       0.000000
      693.200000       0.000000
      693.250000       0.000000
      693.300000       0.000000
      693.350000       0.000000
      693.400000       0.000000
      693.450000       0.000000
      693.500000       0.000000
      693.550000       0.000000
      693.600000       0.000000
      693.650000       0.000000
      693.700000       0.000000
      693.750000       0.000000
      693.800000       0.000000
      693.850000       0.000000
      693.900000       0.000000
      693.950000       0.000000
      694.000000       0.000000
      694.050000       0.000000
      694.100000       0.000000
      694.150000       0.000000
      694.200000       0.000400
      694.250000       0.010400
      694.300000       0.020400
      694.350000       0.030400
      694.400000       0.040400
      694.450000       0.050400
      694.500000       0.060400
      694.550000       0.070400
      694.600000       0.080400
      694.650000       0.090400
      694.700000       0.100400
      694.750000       0.110400
      694.800000       0.120400
      694.850000       0.130400
      694.900000       0.140400
      694.950000       0.150400
      695.000000       0.160400
      695.050000       0.170400
      695.100000       0.180400
      695.150000       0.190400
      695.200000       0.200400
      695.250000       0.210400
      695.300000       0.220400
      695.350000       0.230400
      695.400000       0.240400
      695.450000       0.250400
      695.500000       0.260400
      695.550000       0.270400
      695.600000       0.280400
      695.650000       0.290400
      695.700000       0.300400
      695.750000       0.310400
      695.800000       0.320400
      695.850000       0.330400
      695.900000       0.340400
      695.950000       0.350400
      696.000000       0.360400
      696.050000       0.370400
      696.100000       0.380400
      696.150000       0.390400
      696.200000       0.400400
      696.250000       0.410400
      696.300000       0.420400
      696.350000       0.430400
      696.400000       0.440400
      696.450000       0.450400
      696.500000       0.460400
      696.550000       0.470400
      696.600000       0.480400
      696.650000       0.490400
      696.700000       0.500400
      696.750000       0.510400
      696.800000       0.520400
      696.850000       0.530400
      696.900000       0.540400
      696.950000       0.550400
      697.000000       0.560400
      697.050000       0.570400
      697.100000       0.580400
      697.150000       0.590400
      697.200000       0.600400
      697.250000       0.610400
      697.300000       0.620400
      697.350000       0.630400
      697.400000       0.640400
      697.450000       0.650400
      697.500000       0.660400
      697.550000       0.670400
      697.600000       0.680400
      697.650000       0.690400
      697.700000       0.700400
      697.750000       0.710400
      697.800000       0.720400
      697.850000       0.730400
      697.900000       0.740400
      697.950000       0.750400
      698.000000       0.760400
      698.050000       0.770400
      698.100000       0.780400
      698.150000       0.790400
      698.200000       0.800400
      698.250000       0.810400
      698.300000       0.820400
      698.350000       0.830400
      698.400000       0.840400
      698.450000       0.850400
      698.500000       0.860400
      698.550000       0.870400
      698.600000       0.880400
      698.650000       0.890400
      698.700000       0.900400
      698.750000       0.910400
      698.800000       0.920400
      698.850000       0.930400
      698.900000       0.940400
      698.950000       0.950400
      699.000000       0.960400
      699.050000       0.970400
      699.100000       0.980400
      699.150000       0.990400
      699.200000       1.000000
      699.250000       1.000000
      699.300000       1.000000
      699.350000       1.000000
      699.400000       1.000000
      699.450000       0.990400
      699.500000       0.980400
      699.550000       0.970400
      699.600000       0.960400
      699.650000       0.950400
      699.700000       0.940400
      699.750000       0.930400
      699.800000       0.920400
      699.850000       0.910400
      699.900000       0.900400
      699.950000       0.890400
      700.000000       0.880400
      700.050000       0.870400
      700.100000       0.860400
      700.150000       0.850400
      700.200000       0.840400
      700.250000       0.830400
      700.300000       0.820400
      700.350000       0.810400
      700.400000       0.800400
      700.450000       0.790400
      700.500000       0.780400
      700.550000       0.770400
      700.600000       0.760400
      700.650000       0.750400
      700.700000       0.740400
      700.750000       0.730400
      700.800000       0.720400
      700.850000       0.710400
      700.900000       0.700400
      700.950000       0.690400
      701.000000       0.680400
      701.050000       0.670400
      701.100000       0.660400
      701.150000       0.650400
      701.200000       0.640400
      701.250000       0.630400
      701.300000       0.620400
      701.350000       0.610400
      701.400000       0.600400
      701.450000       0.590400
      701.500000       0.580400
      701.550000       0.570400
      701.600000       0.560400
      701.650000       0.550400
      701.700000       0.540400
      701.750000       0.530400
      701.800000       0.520400
      701.850000       0.510400
      701.900000       0.500400
      701.950000       0.490400
      702.000000       0.480400
      702.050000       0.470400
      702.100000       0.460400
      702.150000       0.450400
      702.200000       0.440400
      702.250000       0.430400
      702.300000       0.420400
      702.350000       0.410400
      702.400000       0.400400
      702.450000       0.390400
      702.500000       0.380400
      702.550000       0.370400
      702.600000       0.360400
      702.650000       0.350400
      702.700000       0.340400
      702.750000       0.330400
      702.800000       0.320400
      702.850000       0.310400
      702.900000       0.300400
      702.950000       0.290400
      703.000000       0.280400
      703.050000       0.270400
      703.100000       0.260400
      703.150000       0.250400
      703.200000       0.240400
      703.250000       0.230400
      703.300000       0.220400
      703.350000       0.210400
      703.400000       0.200400
      703.450000       0.190400
      703.500000       0.180400
      703.550000       0.170400
      703.600000       0.160400
      703.650000       0.150400
      703.700000       0.140400
      703.750000       0.130400
      703.800000       0.120400
      703.850000       0.110400
      703.900000       0.100400
      703.950000       0.090400
      704.000000       0.080400
      704.050000       0.070400
      704.100000       0.060400
      704.150000       0.050400
      704.200000       0.040400
      704.250000       0.030400
      704.300000       0.020400
      704.350000       0.010400
      704.400000       0.000400
      704.450000       0.000000
      704.500000       0.000000
      704.550000       0.000000
      704.600000       0.000000
      704.650000       0.000000
      704.700000       0.000000
      704.750000       0.000000
      704.800000       0.000000
      704.850000       0.000000
      704.900000       0.000000
      704.950000       0.000000
      705.000000       0.000000
      705.050000       0.000000
      705.100000       0.000000
      705.150000       0.000000
      705.200000       0.000000
      705.250000       0.000000
      705.300000       0.000000
      705.350000       0.000000
      705.400000       0.000000
      705.450000       0.000000
      705.500000       0.000000
      705.550000       0.000000
      705.600000       0.000000
      705.650000       0.000000
      705.700000       0.000000
      705.750000       0.000000
      705.800000       0.000000
      705.850000       0.000000
      705.900000       0.000000
      705.950000       0.000000
      706.000000       0.000000
      706.050000       0.000000
      706.100000       0.000000
      706.150000       0.000000
      706.200000       0.000000
      706.250000       0.000000
      706.300000       0.000000
