06, goes_15_sounder_06.flt GOESP_sdr_operational_srf_rev_F
Number of data points:
711
Wavenumber (cm-1)   Filter response
      760.100000       0.000000
      760.200000       0.000000
      760.300000       0.000000
      760.400000       0.000000
      760.500000       0.000000
      760.600000       0.000000
      760.700000       0.000000
      760.800000       0.000000
      760.900000       0.001087
      761.000000       0.001105
      761.100000       0.001124
      761.200000       0.001143
      761.300000       0.001162
      761.400000       0.001182
      761.500000       0.001201
      761.600000       0.001220
      761.700000       0.001241
      761.800000       0.001260
      761.900000       0.001274
      762.000000       0.001295
      762.100000       0.001334
      762.200000       0.001386
      762.300000       0.001436
      762.400000       0.001482
      762.500000       0.001528
      762.600000       0.001574
      762.700000       0.001622
      762.800000       0.001668
      762.900000       0.001712
      763.000000       0.001760
      763.100000       0.001820
      763.200000       0.001887
      763.300000       0.001954
      763.400000       0.002018
      763.500000       0.002083
      763.600000       0.002150
      763.700000       0.002217
      763.800000       0.002282
      763.900000       0.002345
      764.000000       0.002413
      764.100000       0.002498
      764.200000       0.002595
      764.300000       0.002691
      764.400000       0.002784
      764.500000       0.002877
      764.600000       0.002970
      764.700000       0.003066
      764.800000       0.003158
      764.900000       0.003242
      765.000000       0.003338
      765.100000       0.003477
      765.200000       0.003643
      765.300000       0.003805
      765.400000       0.003960
      765.500000       0.004114
      765.600000       0.004273
      765.700000       0.004436
      765.800000       0.004592
      765.900000       0.004732
      766.000000       0.004897
      766.100000       0.005139
      766.200000       0.005431
      766.300000       0.005717
      766.400000       0.005990
      766.500000       0.006265
      766.600000       0.006546
      766.700000       0.006835
      766.800000       0.007113
      766.900000       0.007362
      767.000000       0.007654
      767.100000       0.008078
      767.200000       0.008590
      767.300000       0.009090
      767.400000       0.009566
      767.500000       0.010039
      767.600000       0.010526
      767.700000       0.011030
      767.800000       0.011507
      767.900000       0.011915
      768.000000       0.012424
      768.100000       0.013246
      768.200000       0.014202
      768.300000       0.015041
      768.400000       0.016254
      768.500000       0.017821
      768.600000       0.018893
      768.700000       0.019577
      768.800000       0.020444
      768.900000       0.021376
      769.000000       0.022399
      769.100000       0.023499
      769.200000       0.024674
      769.300000       0.025915
      769.400000       0.027217
      769.500000       0.028575
      769.600000       0.029989
      769.700000       0.031456
      769.800000       0.032979
      769.900000       0.034563
      770.000000       0.036215
      770.100000       0.037946
      770.200000       0.039769
      770.300000       0.041698
      770.400000       0.043754
      770.500000       0.045956
      770.600000       0.048329
      770.700000       0.050892
      770.800000       0.053669
      770.900000       0.056687
      771.000000       0.059974
      771.100000       0.063551
      771.200000       0.067441
      771.300000       0.071666
      771.400000       0.076242
      771.500000       0.081189
      771.600000       0.086528
      771.700000       0.092270
      771.800000       0.098426
      771.900000       0.105012
      772.000000       0.112028
      772.100000       0.119496
      772.200000       0.127424
      772.300000       0.135824
      772.400000       0.144718
      772.500000       0.154111
      772.600000       0.164034
      772.700000       0.174503
      772.800000       0.185524
      772.900000       0.197139
      773.000000       0.209362
      773.100000       0.222212
      773.200000       0.235713
      773.300000       0.249863
      773.400000       0.264686
      773.500000       0.280195
      773.600000       0.296403
      773.700000       0.313285
      773.800000       0.330836
      773.900000       0.349053
      774.000000       0.367931
      774.100000       0.387433
      774.200000       0.407523
      774.300000       0.428167
      774.400000       0.449288
      774.500000       0.470862
      774.600000       0.492809
      774.700000       0.515026
      774.800000       0.537463
      774.900000       0.560010
      775.000000       0.582570
      775.100000       0.605052
      775.200000       0.627352
      775.300000       0.649439
      775.400000       0.671220
      775.500000       0.692627
      775.600000       0.713610
      775.700000       0.734086
      775.800000       0.754018
      775.900000       0.773367
      776.000000       0.792077
      776.100000       0.810104
      776.200000       0.827400
      776.300000       0.843890
      776.400000       0.859544
      776.500000       0.874319
      776.600000       0.888180
      776.700000       0.901073
      776.800000       0.912976
      776.900000       0.923876
      777.000000       0.933769
      777.100000       0.942657
      777.200000       0.950555
      777.300000       0.957492
      777.400000       0.963489
      777.500000       0.968590
      777.600000       0.972832
      777.700000       0.976256
      777.800000       0.978924
      777.900000       0.980891
      778.000000       0.982218
      778.100000       0.982973
      778.200000       0.983227
      778.300000       0.983058
      778.400000       0.982537
      778.500000       0.981737
      778.600000       0.980726
      778.700000       0.979558
      778.800000       0.978293
      778.900000       0.976982
      779.000000       0.975676
      779.100000       0.974421
      779.200000       0.973250
      779.300000       0.972180
      779.400000       0.971229
      779.500000       0.970402
      779.600000       0.969703
      779.700000       0.969133
      779.800000       0.968684
      779.900000       0.968339
      780.000000       0.968081
      780.100000       0.967895
      780.200000       0.967780
      780.300000       0.967731
      780.400000       0.967750
      780.500000       0.967831
      780.600000       0.967966
      780.700000       0.968141
      780.800000       0.968344
      780.900000       0.968569
      781.000000       0.968817
      781.100000       0.969089
      781.200000       0.969387
      781.300000       0.969711
      781.400000       0.970059
      781.500000       0.970427
      781.600000       0.970816
      781.700000       0.971224
      781.800000       0.971658
      781.900000       0.972123
      782.000000       0.972626
      782.100000       0.973170
      782.200000       0.973763
      782.300000       0.974403
      782.400000       0.975094
      782.500000       0.975836
      782.600000       0.976627
      782.700000       0.977460
      782.800000       0.978327
      782.900000       0.979221
      783.000000       0.980142
      783.100000       0.981085
      783.200000       0.982051
      783.300000       0.983044
      783.400000       0.984061
      783.500000       0.985097
      783.600000       0.986152
      783.700000       0.987217
      783.800000       0.988292
      783.900000       0.989367
      784.000000       0.990440
      784.100000       0.991506
      784.200000       0.992549
      784.300000       0.993565
      784.400000       0.994542
      784.500000       0.995471
      784.600000       0.996336
      784.700000       0.997121
      784.800000       0.997817
      784.900000       0.998409
      785.000000       0.998896
      785.100000       0.999279
      785.200000       0.999568
      785.300000       0.999779
      785.400000       0.999915
      785.500000       0.999985
      785.600000       1.000000
      785.700000       0.999966
      785.800000       0.999903
      785.900000       0.999835
      786.000000       0.999778
      786.100000       0.999751
      786.200000       0.999741
      786.300000       0.999733
      786.400000       0.999706
      786.500000       0.999644
      786.600000       0.999527
      786.700000       0.999335
      786.800000       0.999046
      786.900000       0.998634
      787.000000       0.998075
      787.100000       0.997356
      787.200000       0.996501
      787.300000       0.995545
      787.400000       0.994520
      787.500000       0.993453
      787.600000       0.992372
      787.700000       0.991302
      787.800000       0.990271
      787.900000       0.989303
      788.000000       0.988425
      788.100000       0.987648
      788.200000       0.986946
      788.300000       0.986278
      788.400000       0.985602
      788.500000       0.984882
      788.600000       0.984080
      788.700000       0.983161
      788.800000       0.982089
      788.900000       0.980834
      789.000000       0.979360
      789.100000       0.977652
      789.200000       0.975719
      789.300000       0.973584
      789.400000       0.971276
      789.500000       0.968823
      789.600000       0.966252
      789.700000       0.963591
      789.800000       0.960859
      789.900000       0.958074
      790.000000       0.955254
      790.100000       0.952412
      790.200000       0.949571
      790.300000       0.946753
      790.400000       0.943974
      790.500000       0.941246
      790.600000       0.938585
      790.700000       0.935999
      790.800000       0.933494
      790.900000       0.931074
      791.000000       0.928754
      791.100000       0.926530
      791.200000       0.924362
      791.300000       0.922199
      791.400000       0.919985
      791.500000       0.917665
      791.600000       0.915193
      791.700000       0.912520
      791.800000       0.909608
      791.900000       0.906417
      792.000000       0.902907
      792.100000       0.899062
      792.200000       0.894911
      792.300000       0.890496
      792.400000       0.885865
      792.500000       0.881057
      792.600000       0.876125
      792.700000       0.871122
      792.800000       0.866092
      792.900000       0.861085
      793.000000       0.856144
      793.100000       0.851303
      793.200000       0.846565
      793.300000       0.841918
      793.400000       0.837351
      793.500000       0.832856
      793.600000       0.828429
      793.700000       0.824051
      793.800000       0.819709
      793.900000       0.815382
      794.000000       0.811056
      794.100000       0.806719
      794.200000       0.802376
      794.300000       0.798043
      794.400000       0.793727
      794.500000       0.789441
      794.600000       0.785196
      794.700000       0.781005
      794.800000       0.776883
      794.900000       0.772850
      795.000000       0.768922
      795.100000       0.765125
      795.200000       0.761465
      795.300000       0.757942
      795.400000       0.754560
      795.500000       0.751317
      795.600000       0.748218
      795.700000       0.745271
      795.800000       0.742476
      795.900000       0.739846
      796.000000       0.737385
      796.100000       0.735103
      796.200000       0.733024
      796.300000       0.731167
      796.400000       0.729554
      796.500000       0.728205
      796.600000       0.727139
      796.700000       0.726370
      796.800000       0.725910
      796.900000       0.725771
      797.000000       0.725963
      797.100000       0.726490
      797.200000       0.727351
      797.300000       0.728541
      797.400000       0.730062
      797.500000       0.731912
      797.600000       0.734092
      797.700000       0.736604
      797.800000       0.739444
      797.900000       0.742606
      798.000000       0.746086
      798.100000       0.749877
      798.200000       0.753985
      798.300000       0.758402
      798.400000       0.763128
      798.500000       0.768155
      798.600000       0.773467
      798.700000       0.779053
      798.800000       0.784895
      798.900000       0.790961
      799.000000       0.797220
      799.100000       0.803628
      799.200000       0.810128
      799.300000       0.816662
      799.400000       0.823163
      799.500000       0.829551
      799.600000       0.835734
      799.700000       0.841619
      799.800000       0.847108
      799.900000       0.852098
      800.000000       0.856474
      800.100000       0.860128
      800.200000       0.862966
      800.300000       0.864895
      800.400000       0.865832
      800.500000       0.865692
      800.600000       0.864397
      800.700000       0.861871
      800.800000       0.858052
      800.900000       0.852884
      801.000000       0.846332
      801.100000       0.838373
      801.200000       0.828966
      801.300000       0.818107
      801.400000       0.805791
      801.500000       0.792038
      801.600000       0.776890
      801.700000       0.760386
      801.800000       0.742576
      801.900000       0.723557
      802.000000       0.703409
      802.100000       0.682248
      802.200000       0.660208
      802.300000       0.637410
      802.400000       0.613980
      802.500000       0.590056
      802.600000       0.565820
      802.700000       0.541401
      802.800000       0.516929
      802.900000       0.492521
      803.000000       0.468333
      803.100000       0.444477
      803.200000       0.421062
      803.300000       0.398205
      803.400000       0.375952
      803.500000       0.354404
      803.600000       0.333641
      803.700000       0.313680
      803.800000       0.294591
      803.900000       0.276400
      804.000000       0.259129
      804.100000       0.242802
      804.200000       0.227409
      804.300000       0.212939
      804.400000       0.199375
      804.500000       0.186715
      804.600000       0.174922
      804.700000       0.163954
      804.800000       0.153764
      804.900000       0.144316
      805.000000       0.135562
      805.100000       0.127455
      805.200000       0.119952
      805.300000       0.113004
      805.400000       0.106562
      805.500000       0.100587
      805.600000       0.095039
      805.700000       0.089879
      805.800000       0.085075
      805.900000       0.080585
      806.000000       0.076385
      806.100000       0.072444
      806.200000       0.068735
      806.300000       0.065235
      806.400000       0.061913
      806.500000       0.058757
      806.600000       0.055748
      806.700000       0.052868
      806.800000       0.050110
      806.900000       0.047458
      807.000000       0.044913
      807.100000       0.042435
      807.200000       0.040141
      807.300000       0.037566
      807.400000       0.035214
      807.500000       0.033098
      807.600000       0.030996
      807.700000       0.028759
      807.800000       0.026495
      807.900000       0.024728
      808.000000       0.023626
      808.100000       0.022688
      808.200000       0.021597
      808.300000       0.020459
      808.400000       0.019362
      808.500000       0.018296
      808.600000       0.017223
      808.700000       0.016079
      808.800000       0.014923
      808.900000       0.014031
      809.000000       0.013492
      809.100000       0.013039
      809.200000       0.012506
      809.300000       0.011947
      809.400000       0.011410
      809.500000       0.010887
      809.600000       0.010358
      809.700000       0.009796
      809.800000       0.009227
      809.900000       0.008771
      810.000000       0.008469
      810.100000       0.008202
      810.200000       0.007898
      810.300000       0.007582
      810.400000       0.007275
      810.500000       0.006973
      810.600000       0.006668
      810.700000       0.006347
      810.800000       0.006023
      810.900000       0.005754
      811.000000       0.005561
      811.100000       0.005392
      811.200000       0.005207
      811.300000       0.004994
      811.400000       0.004781
      811.500000       0.004648
      811.600000       0.004592
      811.700000       0.004458
      811.800000       0.004248
      811.900000       0.004179
      812.000000       0.004204
      812.100000       0.004223
      812.200000       0.004221
      812.300000       0.004198
      812.400000       0.004143
      812.500000       0.004046
      812.600000       0.003913
      812.700000       0.003757
      812.800000       0.003586
      812.900000       0.003405
      813.000000       0.003222
      813.100000       0.003045
      813.200000       0.002882
      813.300000       0.002740
      813.400000       0.002620
      813.500000       0.002520
      813.600000       0.002437
      813.700000       0.002367
      813.800000       0.002304
      813.900000       0.002247
      814.000000       0.002190
      814.100000       0.002129
      814.200000       0.002067
      814.300000       0.002005
      814.400000       0.001944
      814.500000       0.001889
      814.600000       0.001838
      814.700000       0.001793
      814.800000       0.001751
      814.900000       0.001713
      815.000000       0.001676
      815.100000       0.001641
      815.200000       0.001606
      815.300000       0.001570
      815.400000       0.001533
      815.500000       0.001497
      815.600000       0.001461
      815.700000       0.001425
      815.800000       0.001391
      815.900000       0.001359
      816.000000       0.001329
      816.100000       0.001301
      816.200000       0.001275
      816.300000       0.001251
      816.400000       0.001229
      816.500000       0.001208
      816.600000       0.001189
      816.700000       0.001171
      816.800000       0.001154
      816.900000       0.001137
      817.000000       0.001121
      817.100000       0.001106
      817.200000       0.001090
      817.300000       0.000314
      817.400000       0.000309
      817.500000       0.000304
      817.600000       0.000299
      817.700000       0.000294
      817.800000       0.000288
      817.900000       0.000281
      818.000000       0.000274
      818.100000       0.000266
      818.200000       0.000257
      818.300000       0.000248
      818.400000       0.000237
      818.500000       0.000227
      818.600000       0.000216
      818.700000       0.000206
      818.800000       0.000197
      818.900000       0.000189
      819.000000       0.000182
      819.100000       0.000178
      819.200000       0.000176
      819.300000       0.000176
      819.400000       0.000179
      819.500000       0.000182
      819.600000       0.000187
      819.700000       0.000193
      819.800000       0.000198
      819.900000       0.000204
      820.000000       0.000208
      820.100000       0.000211
      820.200000       0.000213
      820.300000       0.000212
      820.400000       0.000209
      820.500000       0.000204
      820.600000       0.000197
      820.700000       0.000189
      820.800000       0.000180
      820.900000       0.000171
      821.000000       0.000161
      821.100000       0.000152
      821.200000       0.000144
      821.300000       0.000136
      821.400000       0.000130
      821.500000       0.000126
      821.600000       0.000123
      821.700000       0.000121
      821.800000       0.000120
      821.900000       0.000119
      822.000000       0.000120
      822.100000       0.000121
      822.200000       0.000122
      822.300000       0.000123
      822.400000       0.000124
      822.500000       0.000125
      822.600000       0.000126
      822.700000       0.000126
      822.800000       0.000125
      822.900000       0.000124
      823.000000       0.000121
      823.100000       0.000118
      823.200000       0.000113
      823.300000       0.000108
      823.400000       0.000101
      823.500000       0.000095
      823.600000       0.000088
      823.700000       0.000081
      823.800000       0.000075
      823.900000       0.000069
      824.000000       0.000064
      824.100000       0.000059
      824.200000       0.000056
      824.300000       0.000055
      824.400000       0.000055
      824.500000       0.000057
      824.600000       0.000060
      824.700000       0.000066
      824.800000       0.000072
      824.900000       0.000080
      825.000000       0.000087
      825.100000       0.000094
      825.200000       0.000101
      825.300000       0.000107
      825.400000       0.000111
      825.500000       0.000114
      825.600000       0.000114
      825.700000       0.000112
      825.800000       0.000106
      825.900000       0.000097
      826.000000       0.000083
      826.100000       0.000065
      826.200000       0.000044
      826.300000       0.000023
      826.400000       0.000003
      826.500000       0.000000
      826.600000       0.000000
      826.700000       0.000000
      826.800000       0.000000
      826.900000       0.000000
      827.000000       0.000000
      827.100000       0.000000
      827.200000       0.000000
      827.300000       0.000000
      827.400000       0.000000
      827.500000       0.000000
      827.600000       0.000000
      827.700000       0.000000
      827.800000       0.000000
      827.900000       0.000000
      828.000000       0.000000
      828.100000       0.000000
      828.200000       0.000000
      828.300000       0.000000
      828.400000       0.000000
      828.500000       0.000000
      828.600000       0.000000
      828.700000       0.000000
      828.800000       0.000000
      828.900000       0.000000
      829.000000       0.000000
      829.100000       0.000000
      829.200000       0.000000
      829.300000       0.000000
      829.400000       0.000000
      829.500000       0.000000
      829.600000       0.000000
      829.700000       0.000000
      829.800000       0.000000
      829.900000       0.000000
      830.000000       0.000000
      830.100000       0.000000
      830.200000       0.000000
      830.300000       0.000000
      830.400000       0.000006
      830.500000       0.000013
      830.600000       0.000021
      830.700000       0.000029
      830.800000       0.000038
      830.900000       0.000047
      831.000000       0.000055
      831.100000       0.000065
