3,   channel 3 SRF from file SRF_SSH-1_Delivery_220520/SRF_DMSP-F4_SSH_Chan03.asc received June 2022 from SPASCIA
Number of data points:
541
Wavenumber (cm-1)   Filter response
      348.300000       0.002700
      348.400000       0.002700
      348.500000       0.002800
      348.600000       0.002800
      348.700000       0.002900
      348.800000       0.002900
      348.900000       0.003100
      349.000000       0.003200
      349.100000       0.003300
      349.200000       0.003400
      349.300000       0.003500
      349.400000       0.003500
      349.500000       0.003600
      349.600000       0.003600
      349.700000       0.003700
      349.800000       0.003800
      349.900000       0.003800
      350.000000       0.003900
      350.100000       0.003900
      350.200000       0.004000
      350.300000       0.004000
      350.400000       0.004100
      350.500000       0.004200
      350.600000       0.004300
      350.700000       0.004500
      350.800000       0.004600
      350.900000       0.004700
      351.000000       0.004900
      351.100000       0.005000
      351.200000       0.005200
      351.300000       0.005400
      351.400000       0.005500
      351.500000       0.005600
      351.600000       0.005700
      351.700000       0.005800
      351.800000       0.005900
      351.900000       0.006100
      352.000000       0.006200
      352.100000       0.006400
      352.200000       0.006500
      352.300000       0.006700
      352.400000       0.006900
      352.500000       0.007000
      352.600000       0.007200
      352.700000       0.007300
      352.800000       0.007500
      352.900000       0.007700
      353.000000       0.007900
      353.100000       0.008200
      353.200000       0.008400
      353.300000       0.008600
      353.400000       0.008800
      353.500000       0.009000
      353.600000       0.009200
      353.700000       0.009400
      353.800000       0.009700
      353.900000       0.009900
      354.000000       0.010100
      354.100000       0.010300
      354.200000       0.010500
      354.300000       0.010700
      354.400000       0.011000
      354.500000       0.011300
      354.600000       0.011500
      354.700000       0.011800
      354.800000       0.012100
      354.900000       0.012400
      355.000000       0.012800
      355.100000       0.013200
      355.200000       0.013600
      355.300000       0.013900
      355.400000       0.014300
      355.500000       0.014600
      355.600000       0.014900
      355.700000       0.015200
      355.800000       0.015500
      355.900000       0.015900
      356.000000       0.016300
      356.100000       0.016700
      356.200000       0.017100
      356.300000       0.017400
      356.400000       0.017900
      356.500000       0.018400
      356.600000       0.018900
      356.700000       0.019400
      356.800000       0.019800
      356.900000       0.020400
      357.000000       0.020900
      357.100000       0.021400
      357.200000       0.022000
      357.300000       0.022500
      357.400000       0.023100
      357.500000       0.023600
      357.600000       0.024100
      357.700000       0.024700
      357.800000       0.025200
      357.900000       0.026100
      358.000000       0.026900
      358.100000       0.027800
      358.200000       0.028600
      358.300000       0.029500
      358.400000       0.030000
      358.500000       0.030600
      358.600000       0.031100
      358.700000       0.031600
      358.800000       0.032200
      358.900000       0.033200
      359.000000       0.034300
      359.100000       0.035400
      359.200000       0.036500
      359.300000       0.037500
      359.400000       0.038600
      359.500000       0.039700
      359.600000       0.040800
      359.700000       0.041800
      359.800000       0.042900
      359.900000       0.043400
      360.000000       0.044000
      360.100000       0.044500
      360.200000       0.045000
      360.300000       0.045600
      360.400000       0.048300
      360.500000       0.050900
      360.600000       0.053600
      360.700000       0.056300
      360.800000       0.059000
      360.900000       0.059000
      361.000000       0.059000
      361.100000       0.059000
      361.200000       0.059000
      361.300000       0.059000
      361.400000       0.059500
      361.500000       0.060100
      361.600000       0.060600
      361.700000       0.061100
      361.800000       0.061700
      361.900000       0.062700
      362.000000       0.063800
      362.100000       0.064900
      362.200000       0.066000
      362.300000       0.067000
      362.400000       0.068100
      362.500000       0.069200
      362.600000       0.070200
      362.700000       0.071300
      362.800000       0.072400
      362.900000       0.075100
      363.000000       0.077700
      363.100000       0.080400
      363.200000       0.083100
      363.300000       0.085800
      363.400000       0.089000
      363.500000       0.092200
      363.600000       0.095400
      363.700000       0.098700
      363.800000       0.101900
      363.900000       0.105100
      364.000000       0.108300
      364.100000       0.111500
      364.200000       0.114700
      364.300000       0.118000
      364.400000       0.122300
      364.500000       0.126500
      364.600000       0.130800
      364.700000       0.135100
      364.800000       0.139400
      364.900000       0.143700
      365.000000       0.148000
      365.100000       0.152300
      365.200000       0.156600
      365.300000       0.160900
      365.400000       0.164600
      365.500000       0.168400
      365.600000       0.172100
      365.700000       0.175900
      365.800000       0.179600
      365.900000       0.185500
      366.000000       0.191400
      366.100000       0.197300
      366.200000       0.203200
      366.300000       0.209100
      366.400000       0.216600
      366.500000       0.224100
      366.600000       0.231600
      366.700000       0.239100
      366.800000       0.246600
      366.900000       0.254700
      367.000000       0.262700
      367.100000       0.270800
      367.200000       0.278800
      367.300000       0.286900
      367.400000       0.295400
      367.500000       0.304000
      367.600000       0.312600
      367.700000       0.321200
      367.800000       0.329800
      367.900000       0.338300
      368.000000       0.346900
      368.100000       0.355500
      368.200000       0.364100
      368.300000       0.372700
      368.400000       0.381200
      368.500000       0.389800
      368.600000       0.398400
      368.700000       0.407000
      368.800000       0.415500
      368.900000       0.426800
      369.000000       0.438100
      369.100000       0.449300
      369.200000       0.460600
      369.300000       0.471800
      369.400000       0.483600
      369.500000       0.495400
      369.600000       0.507200
      369.700000       0.519000
      369.800000       0.530800
      369.900000       0.542600
      370.000000       0.554400
      370.100000       0.566200
      370.200000       0.578000
      370.300000       0.589800
      370.400000       0.600000
      370.500000       0.610200
      370.600000       0.620400
      370.700000       0.630600
      370.800000       0.640800
      370.900000       0.657400
      371.000000       0.674000
      371.100000       0.690600
      371.200000       0.707200
      371.300000       0.723900
      371.400000       0.733500
      371.500000       0.743200
      371.600000       0.752800
      371.700000       0.762500
      371.800000       0.772100
      371.900000       0.780700
      372.000000       0.789300
      372.100000       0.797900
      372.200000       0.806400
      372.300000       0.815000
      372.400000       0.822500
      372.500000       0.830000
      372.600000       0.837500
      372.700000       0.845000
      372.800000       0.852500
      372.900000       0.861700
      373.000000       0.870800
      373.100000       0.879900
      373.200000       0.889000
      373.300000       0.898100
      373.400000       0.905600
      373.500000       0.913100
      373.600000       0.920600
      373.700000       0.928200
      373.800000       0.935700
      373.900000       0.942600
      374.000000       0.949600
      374.100000       0.956600
      374.200000       0.963500
      374.300000       0.970500
      374.400000       0.974300
      374.500000       0.978000
      374.600000       0.981800
      374.700000       0.985500
      374.800000       0.989300
      374.900000       0.991400
      375.000000       0.993600
      375.100000       0.995700
      375.200000       0.997900
      375.300000       1.000000
      375.400000       0.999500
      375.500000       0.998900
      375.600000       0.998400
      375.700000       0.997900
      375.800000       0.997300
      375.900000       0.994600
      376.000000       0.992000
      376.100000       0.989300
      376.200000       0.986600
      376.300000       0.983900
      376.400000       0.980200
      376.500000       0.976400
      376.600000       0.972700
      376.700000       0.968900
      376.800000       0.965100
      376.900000       0.959800
      377.000000       0.954400
      377.100000       0.949100
      377.200000       0.943700
      377.300000       0.938300
      377.400000       0.928700
      377.500000       0.919000
      377.600000       0.909400
      377.700000       0.899700
      377.800000       0.890100
      377.900000       0.878300
      378.000000       0.866500
      378.100000       0.854700
      378.200000       0.842900
      378.300000       0.831100
      378.400000       0.818800
      378.500000       0.806400
      378.600000       0.794100
      378.700000       0.781800
      378.800000       0.769400
      378.900000       0.755500
      379.000000       0.741600
      379.100000       0.727600
      379.200000       0.713700
      379.300000       0.699700
      379.400000       0.685300
      379.500000       0.670800
      379.600000       0.656300
      379.700000       0.641800
      379.800000       0.627300
      379.900000       0.613400
      380.000000       0.599500
      380.100000       0.585500
      380.200000       0.571600
      380.300000       0.557600
      380.400000       0.545300
      380.500000       0.533000
      380.600000       0.520600
      380.700000       0.508300
      380.800000       0.496000
      380.900000       0.481500
      381.000000       0.467000
      381.100000       0.452500
      381.200000       0.438100
      381.300000       0.423600
      381.400000       0.412900
      381.500000       0.402100
      381.600000       0.391400
      381.700000       0.380700
      381.800000       0.370000
      381.900000       0.360300
      382.000000       0.350700
      382.100000       0.341000
      382.200000       0.331400
      382.300000       0.321700
      382.400000       0.312600
      382.500000       0.303500
      382.600000       0.294400
      382.700000       0.285300
      382.800000       0.276100
      382.900000       0.267600
      383.000000       0.259000
      383.100000       0.250400
      383.200000       0.241800
      383.300000       0.233200
      383.400000       0.225700
      383.500000       0.218200
      383.600000       0.210700
      383.700000       0.203200
      383.800000       0.195700
      383.900000       0.191400
      384.000000       0.187100
      384.100000       0.182800
      384.200000       0.178600
      384.300000       0.174300
      384.400000       0.169400
      384.500000       0.164600
      384.600000       0.159800
      384.700000       0.155000
      384.800000       0.150100
      384.900000       0.146900
      385.000000       0.143700
      385.100000       0.140500
      385.200000       0.137300
      385.300000       0.134000
      385.400000       0.130800
      385.500000       0.127600
      385.600000       0.124400
      385.700000       0.121200
      385.800000       0.118000
      385.900000       0.114700
      386.000000       0.111500
      386.100000       0.108300
      386.200000       0.105100
      386.300000       0.101900
      386.400000       0.099700
      386.500000       0.097600
      386.600000       0.095400
      386.700000       0.093300
      386.800000       0.091200
      386.900000       0.089000
      387.000000       0.086900
      387.100000       0.084700
      387.200000       0.082600
      387.300000       0.080400
      387.400000       0.078300
      387.500000       0.076100
      387.600000       0.074000
      387.700000       0.071800
      387.800000       0.069700
      387.900000       0.067600
      388.000000       0.065400
      388.100000       0.063300
      388.200000       0.061100
      388.300000       0.059000
      388.400000       0.057400
      388.500000       0.055800
      388.600000       0.054200
      388.700000       0.052500
      388.800000       0.050900
      388.900000       0.049900
      389.000000       0.048800
      389.100000       0.047700
      389.200000       0.046600
      389.300000       0.045600
      389.400000       0.044000
      389.500000       0.042400
      389.600000       0.040800
      389.700000       0.039100
      389.800000       0.037500
      389.900000       0.037000
      390.000000       0.036500
      390.100000       0.035900
      390.200000       0.035400
      390.300000       0.034900
      390.400000       0.034300
      390.500000       0.033800
      390.600000       0.033200
      390.700000       0.032700
      390.800000       0.032200
      390.900000       0.031600
      391.000000       0.031100
      391.100000       0.030600
      391.200000       0.030000
      391.300000       0.029500
      391.400000       0.028700
      391.500000       0.027900
      391.600000       0.027100
      391.700000       0.026300
      391.800000       0.025500
      391.900000       0.025000
      392.000000       0.024500
      392.100000       0.024000
      392.200000       0.023500
      392.300000       0.023100
      392.400000       0.022600
      392.500000       0.022100
      392.600000       0.021600
      392.700000       0.021100
      392.800000       0.020600
      392.900000       0.020200
      393.000000       0.019800
      393.100000       0.019400
      393.200000       0.018900
      393.300000       0.018500
      393.400000       0.018100
      393.500000       0.017700
      393.600000       0.017400
      393.700000       0.017000
      393.800000       0.016600
      393.900000       0.016300
      394.000000       0.016000
      394.100000       0.015700
      394.200000       0.015300
      394.300000       0.015000
      394.400000       0.014700
      394.500000       0.014400
      394.600000       0.014000
      394.700000       0.013700
      394.800000       0.013400
      394.900000       0.013100
      395.000000       0.012900
      395.100000       0.012600
      395.200000       0.012300
      395.300000       0.012100
      395.400000       0.011800
      395.500000       0.011500
      395.600000       0.011300
      395.700000       0.011000
      395.800000       0.010700
      395.900000       0.010500
      396.000000       0.010300
      396.100000       0.010100
      396.200000       0.009900
      396.300000       0.009700
      396.400000       0.009400
      396.500000       0.009200
      396.600000       0.009000
      396.700000       0.008800
      396.800000       0.008600
      396.900000       0.008200
      397.000000       0.007700
      397.100000       0.007300
      397.200000       0.006900
      397.300000       0.006400
      397.400000       0.006500
      397.500000       0.006600
      397.600000       0.006800
      397.700000       0.006900
      397.800000       0.007000
      397.900000       0.006800
      398.000000       0.006600
      398.100000       0.006500
      398.200000       0.006300
      398.300000       0.006200
      398.400000       0.006100
      398.500000       0.006000
      398.600000       0.005800
      398.700000       0.005700
      398.800000       0.005600
      398.900000       0.005500
      399.000000       0.005400
      399.100000       0.005300
      399.200000       0.005200
      399.300000       0.005100
      399.400000       0.005000
      399.500000       0.004900
      399.600000       0.004800
      399.700000       0.004700
      399.800000       0.004600
      399.900000       0.004500
      400.000000       0.004300
      400.100000       0.004200
      400.200000       0.004100
      400.300000       0.004000
      400.400000       0.004000
      400.500000       0.003900
      400.600000       0.003900
      400.700000       0.003800
      400.800000       0.003800
      400.900000       0.003600
      401.000000       0.003500
      401.100000       0.003400
      401.200000       0.003300
      401.300000       0.003200
      401.400000       0.003200
      401.500000       0.003100
      401.600000       0.003100
      401.700000       0.003000
      401.800000       0.002900
      401.900000       0.002900
      402.000000       0.002800
      402.100000       0.002800
      402.200000       0.002700
      402.300000       0.002700
