6,   channel 6 SRF from file SRF_SIRS-D_Ch06.asc received July 2019 from Carsten Stanfuss
Number of data points:
281
Wavenumber (cm-1)   Filter response
      685.000000       0.000000
      685.050000       0.000000
      685.100000       0.000000
      685.150000       0.000000
      685.200000       0.000000
      685.250000       0.000000
      685.300000       0.000000
      685.350000       0.000000
      685.400000       0.000000
      685.450000       0.000000
      685.500000       0.000000
      685.550000       0.000000
      685.600000       0.000000
      685.650000       0.000000
      685.700000       0.000000
      685.750000       0.000000
      685.800000       0.000000
      685.850000       0.000000
      685.900000       0.000000
      685.950000       0.000000
      686.000000       0.000000
      686.050000       0.000000
      686.100000       0.000000
      686.150000       0.000000
      686.200000       0.000000
      686.250000       0.000000
      686.300000       0.000000
      686.350000       0.000000
      686.400000       0.000000
      686.450000       0.000000
      686.500000       0.000000
      686.550000       0.000000
      686.600000       0.001000
      686.650000       0.011000
      686.700000       0.021000
      686.750000       0.031000
      686.800000       0.041000
      686.850000       0.051000
      686.900000       0.061000
      686.950000       0.071000
      687.000000       0.081000
      687.050000       0.091000
      687.100000       0.101000
      687.150000       0.111000
      687.200000       0.121000
      687.250000       0.131000
      687.300000       0.141000
      687.350000       0.151000
      687.400000       0.161000
      687.450000       0.171000
      687.500000       0.181000
      687.550000       0.191000
      687.600000       0.201000
      687.650000       0.211000
      687.700000       0.221000
      687.750000       0.231000
      687.800000       0.241000
      687.850000       0.251000
      687.900000       0.261000
      687.950000       0.271000
      688.000000       0.281000
      688.050000       0.291000
      688.100000       0.301000
      688.150000       0.311000
      688.200000       0.321000
      688.250000       0.331000
      688.300000       0.341000
      688.350000       0.351000
      688.400000       0.361000
      688.450000       0.371000
      688.500000       0.381000
      688.550000       0.391000
      688.600000       0.401000
      688.650000       0.411000
      688.700000       0.421000
      688.750000       0.431000
      688.800000       0.441000
      688.850000       0.451000
      688.900000       0.461000
      688.950000       0.471000
      689.000000       0.481000
      689.050000       0.491000
      689.100000       0.501000
      689.150000       0.511000
      689.200000       0.521000
      689.250000       0.531000
      689.300000       0.541000
      689.350000       0.551000
      689.400000       0.561000
      689.450000       0.571000
      689.500000       0.581000
      689.550000       0.591000
      689.600000       0.601000
      689.650000       0.611000
      689.700000       0.621000
      689.750000       0.631000
      689.800000       0.641000
      689.850000       0.651000
      689.900000       0.661000
      689.950000       0.671000
      690.000000       0.681000
      690.050000       0.691000
      690.100000       0.701000
      690.150000       0.711000
      690.200000       0.721000
      690.250000       0.731000
      690.300000       0.741000
      690.350000       0.751000
      690.400000       0.761000
      690.450000       0.771000
      690.500000       0.781000
      690.550000       0.791000
      690.600000       0.801000
      690.650000       0.811000
      690.700000       0.821000
      690.750000       0.831000
      690.800000       0.841000
      690.850000       0.851000
      690.900000       0.861000
      690.950000       0.871000
      691.000000       0.881000
      691.050000       0.891000
      691.100000       0.901000
      691.150000       0.911000
      691.200000       0.921000
      691.250000       0.931000
      691.300000       0.941000
      691.350000       0.951000
      691.400000       0.961000
      691.450000       0.971000
      691.500000       0.981000
      691.550000       0.991000
      691.600000       1.000000
      691.650000       1.000000
      691.700000       1.000000
      691.750000       1.000000
      691.800000       1.000000
      691.850000       1.000000
      691.900000       1.000000
      691.950000       1.000000
      692.000000       1.000000
      692.050000       1.000000
      692.100000       1.000000
      692.150000       1.000000
      692.200000       1.000000
      692.250000       1.000000
      692.300000       1.000000
      692.350000       1.000000
      692.400000       1.000000
      692.450000       0.991000
      692.500000       0.981000
      692.550000       0.971000
      692.600000       0.961000
      692.650000       0.951000
      692.700000       0.941000
      692.750000       0.931000
      692.800000       0.921000
      692.850000       0.911000
      692.900000       0.901000
      692.950000       0.891000
      693.000000       0.881000
      693.050000       0.871000
      693.100000       0.861000
      693.150000       0.851000
      693.200000       0.841000
      693.250000       0.831000
      693.300000       0.821000
      693.350000       0.811000
      693.400000       0.801000
      693.450000       0.791000
      693.500000       0.781000
      693.550000       0.771000
      693.600000       0.761000
      693.650000       0.751000
      693.700000       0.741000
      693.750000       0.731000
      693.800000       0.721000
      693.850000       0.711000
      693.900000       0.701000
      693.950000       0.691000
      694.000000       0.681000
      694.050000       0.671000
      694.100000       0.661000
      694.150000       0.651000
      694.200000       0.641000
      694.250000       0.631000
      694.300000       0.621000
      694.350000       0.611000
      694.400000       0.601000
      694.450000       0.591000
      694.500000       0.581000
      694.550000       0.571000
      694.600000       0.561000
      694.650000       0.551000
      694.700000       0.541000
      694.750000       0.531000
      694.800000       0.521000
      694.850000       0.511000
      694.900000       0.501000
      694.950000       0.491000
      695.000000       0.481000
      695.050000       0.471000
      695.100000       0.461000
      695.150000       0.451000
      695.200000       0.441000
      695.250000       0.431000
      695.300000       0.421000
      695.350000       0.411000
      695.400000       0.401000
      695.450000       0.391000
      695.500000       0.381000
      695.550000       0.371000
      695.600000       0.361000
      695.650000       0.351000
      695.700000       0.341000
      695.750000       0.331000
      695.800000       0.321000
      695.850000       0.311000
      695.900000       0.301000
      695.950000       0.291000
      696.000000       0.281000
      696.050000       0.271000
      696.100000       0.261000
      696.150000       0.251000
      696.200000       0.241000
      696.250000       0.231000
      696.300000       0.221000
      696.350000       0.211000
      696.400000       0.201000
      696.450000       0.191000
      696.500000       0.181000
      696.550000       0.171000
      696.600000       0.161000
      696.650000       0.151000
      696.700000       0.141000
      696.750000       0.131000
      696.800000       0.121000
      696.850000       0.111000
      696.900000       0.101000
      696.950000       0.091000
      697.000000       0.081000
      697.050000       0.071000
      697.100000       0.061000
      697.150000       0.051000
      697.200000       0.041000
      697.250000       0.031000
      697.300000       0.021000
      697.350000       0.011000
      697.400000       0.001000
      697.450000       0.000000
      697.500000       0.000000
      697.550000       0.000000
      697.600000       0.000000
      697.650000       0.000000
      697.700000       0.000000
      697.750000       0.000000
      697.800000       0.000000
      697.850000       0.000000
      697.900000       0.000000
      697.950000       0.000000
      698.000000       0.000000
      698.050000       0.000000
      698.100000       0.000000
      698.150000       0.000000
      698.200000       0.000000
      698.250000       0.000000
      698.300000       0.000000
      698.350000       0.000000
      698.400000       0.000000
      698.450000       0.000000
      698.500000       0.000000
      698.550000       0.000000
      698.600000       0.000000
      698.650000       0.000000
      698.700000       0.000000
      698.750000       0.000000
      698.800000       0.000000
      698.850000       0.000000
      698.900000       0.000000
      698.950000       0.000000
      699.000000       0.000000
