16,   channel 16 SRF from file New_AMI_SRF_IR133_-0.80wn.txt received February 2021 from Eunha Sohn (KMA)
Number of data points:
581
Wavenumber (cm-1)   Filter response
      722.100000       0.000041
      722.200000       0.000127
      722.300000       0.000181
      722.400000       0.000245
      722.500000       0.000295
      722.600000       0.000369
      722.700000       0.000427
      722.800000       0.000485
      722.900000       0.000550
      723.000000       0.000611
      723.100000       0.000678
      723.200000       0.000747
      723.300000       0.000818
      723.400000       0.000894
      723.500000       0.000972
      723.600000       0.001056
      723.700000       0.001145
      723.800000       0.001239
      723.900000       0.001339
      724.000000       0.001445
      724.100000       0.001560
      724.200000       0.001681
      724.300000       0.001811
      724.400000       0.001949
      724.500000       0.002095
      724.600000       0.002252
      724.700000       0.002418
      724.800000       0.002593
      724.900000       0.002779
      725.000000       0.002974
      725.100000       0.003181
      725.200000       0.003397
      725.300000       0.003627
      725.400000       0.003866
      725.500000       0.004115
      725.600000       0.004376
      725.700000       0.004645
      725.800000       0.004927
      725.900000       0.005218
      726.000000       0.005517
      726.100000       0.005832
      726.200000       0.006153
      726.300000       0.006489
      726.400000       0.006838
      726.500000       0.007199
      726.600000       0.007576
      726.700000       0.007960
      726.800000       0.008362
      726.900000       0.008786
      727.000000       0.009233
      727.100000       0.009700
      727.200000       0.010188
      727.300000       0.010708
      727.400000       0.011248
      727.500000       0.011813
      727.600000       0.012404
      727.700000       0.013027
      727.800000       0.013678
      727.900000       0.014357
      728.000000       0.015072
      728.100000       0.015816
      728.200000       0.016598
      728.300000       0.017408
      728.400000       0.018250
      728.500000       0.019128
      728.600000       0.020039
      728.700000       0.020992
      728.800000       0.021984
      728.900000       0.023025
      729.000000       0.024120
      729.100000       0.025267
      729.200000       0.026467
      729.300000       0.027714
      729.400000       0.029047
      729.500000       0.030443
      729.600000       0.031901
      729.700000       0.033433
      729.800000       0.035047
      729.900000       0.036746
      730.000000       0.038530
      730.100000       0.040394
      730.200000       0.042357
      730.300000       0.044421
      730.400000       0.046580
      730.500000       0.048839
      730.600000       0.051218
      730.700000       0.053689
      730.800000       0.056270
      730.900000       0.058992
      731.000000       0.061816
      731.100000       0.064771
      731.200000       0.067846
      731.300000       0.071050
      731.400000       0.074396
      731.500000       0.077884
      731.600000       0.081526
      731.700000       0.085315
      731.800000       0.089251
      731.900000       0.093372
      732.000000       0.097636
      732.100000       0.102083
      732.200000       0.106737
      732.300000       0.111568
      732.400000       0.116592
      732.500000       0.121822
      732.600000       0.127230
      732.700000       0.132898
      732.800000       0.138712
      732.900000       0.144745
      733.000000       0.150956
      733.100000       0.157340
      733.200000       0.163909
      733.300000       0.170641
      733.400000       0.177488
      733.500000       0.184442
      733.600000       0.191593
      733.700000       0.198821
      733.800000       0.206090
      733.900000       0.213513
      734.000000       0.220990
      734.100000       0.228514
      734.200000       0.236154
      734.300000       0.243932
      734.400000       0.251704
      734.500000       0.259628
      734.600000       0.267669
      734.700000       0.275683
      734.800000       0.283831
      734.900000       0.292112
      735.000000       0.300417
      735.100000       0.308856
      735.200000       0.317397
      735.300000       0.326088
      735.400000       0.334760
      735.500000       0.343604
      735.600000       0.352602
      735.700000       0.361597
      735.800000       0.370725
      735.900000       0.379965
      736.000000       0.389266
      736.100000       0.398591
      736.200000       0.408036
      736.300000       0.417474
      736.400000       0.427060
      736.500000       0.436641
      736.600000       0.446196
      736.700000       0.455688
      736.800000       0.465376
      736.900000       0.475013
      737.000000       0.484518
      737.100000       0.494017
      737.200000       0.503694
      737.300000       0.513278
      737.400000       0.522673
      737.500000       0.532162
      737.600000       0.541579
      737.700000       0.550911
      737.800000       0.560088
      737.900000       0.569240
      738.000000       0.578464
      738.100000       0.587571
      738.200000       0.596661
      738.300000       0.605664
      738.400000       0.614578
      738.500000       0.623363
      738.600000       0.632158
      738.700000       0.640877
      738.800000       0.649562
      738.900000       0.657988
      739.000000       0.666614
      739.100000       0.675003
      739.200000       0.683176
      739.300000       0.691207
      739.400000       0.699196
      739.500000       0.706796
      739.600000       0.714204
      739.700000       0.721317
      739.800000       0.728180
      739.900000       0.735084
      740.000000       0.741620
      740.100000       0.748154
      740.200000       0.754500
      740.300000       0.760793
      740.400000       0.766842
      740.500000       0.772832
      740.600000       0.778684
      740.700000       0.785494
      740.800000       0.790235
      740.900000       0.794732
      741.000000       0.798784
      741.100000       0.802394
      741.200000       0.805864
      741.300000       0.809569
      741.400000       0.813584
      741.500000       0.817888
      741.600000       0.822223
      741.700000       0.826035
      741.800000       0.828977
      741.900000       0.831237
      742.000000       0.833081
      742.100000       0.835177
      742.200000       0.837912
      742.300000       0.841446
      742.400000       0.845053
      742.500000       0.847561
      742.600000       0.848639
      742.700000       0.848314
      742.800000       0.849648
      742.900000       0.864173
      743.000000       0.872374
      743.100000       0.880340
      743.200000       0.875845
      743.300000       0.869952
      743.400000       0.857331
      743.500000       0.852796
      743.600000       0.851618
      743.700000       0.851550
      743.800000       0.852765
      743.900000       0.854598
      744.000000       0.856015
      744.100000       0.856215
      744.200000       0.855459
      744.300000       0.854789
      744.400000       0.854907
      744.500000       0.856268
      744.600000       0.858236
      744.700000       0.860124
      744.800000       0.860977
      744.900000       0.860776
      745.000000       0.859870
      745.100000       0.858836
      745.200000       0.858479
      745.300000       0.858394
      745.400000       0.857860
      745.500000       0.856724
      745.600000       0.854801
      745.700000       0.852429
      745.800000       0.850283
      745.900000       0.848848
      746.000000       0.848213
      746.100000       0.847213
      746.200000       0.845658
      746.300000       0.843629
      746.400000       0.841422
      746.500000       0.840286
      746.600000       0.840420
      746.700000       0.841617
      746.800000       0.843524
      746.900000       0.845214
      747.000000       0.846422
      747.100000       0.847165
      747.200000       0.847991
      747.300000       0.849410
      747.400000       0.851294
      747.500000       0.853640
      747.600000       0.856041
      747.700000       0.857912
      747.800000       0.859297
      747.900000       0.860054
      748.000000       0.860338
      748.100000       0.860645
      748.200000       0.860859
      748.300000       0.863430
      748.400000       0.864477
      748.500000       0.865575
      748.600000       0.866755
      748.700000       0.868048
      748.800000       0.869468
      748.900000       0.870945
      749.000000       0.872137
      749.100000       0.873602
      749.200000       0.875145
      749.300000       0.876715
      749.400000       0.878435
      749.500000       0.880177
      749.600000       0.881801
      749.700000       0.883849
      749.800000       0.885857
      749.900000       0.887938
      750.000000       0.890125
      750.100000       0.892376
      750.200000       0.894693
      750.300000       0.896975
      750.400000       0.899405
      750.500000       0.901873
      750.600000       0.904346
      750.700000       0.906790
      750.800000       0.909253
      750.900000       0.911731
      751.000000       0.914181
      751.100000       0.916661
      751.200000       0.919039
      751.300000       0.921536
      751.400000       0.923956
      751.500000       0.926299
      751.600000       0.928757
      751.700000       0.931323
      751.800000       0.933858
      751.900000       0.936263
      752.000000       0.938713
      752.100000       0.941305
      752.200000       0.943848
      752.300000       0.946376
      752.400000       0.948942
      752.500000       0.951555
      752.600000       0.954233
      752.700000       0.956827
      752.800000       0.959663
      752.900000       0.962523
      753.000000       0.965280
      753.100000       0.968051
      753.200000       0.970787
      753.300000       0.973407
      753.400000       0.975907
      753.500000       0.978151
      753.600000       0.980396
      753.700000       0.982717
      753.800000       0.984648
      753.900000       0.986475
      754.000000       0.988278
      754.100000       0.989898
      754.200000       0.991122
      754.300000       0.992531
      754.400000       0.993802
      754.500000       0.994887
      754.600000       0.995879
      754.700000       0.996678
      754.800000       0.997518
      754.900000       0.998183
      755.000000       0.998613
      755.100000       0.999195
      755.200000       0.999439
      755.300000       0.999745
      755.400000       0.999933
      755.500000       0.999951
      755.600000       0.999964
      755.700000       0.999726
      755.800000       0.999522
      755.900000       0.999109
      756.000000       0.998674
      756.100000       0.998273
      756.200000       0.997843
      756.300000       0.997407
      756.400000       0.996892
      756.500000       0.996460
      756.600000       0.995714
      756.700000       0.995068
      756.800000       0.994349
      756.900000       0.993573
      757.000000       0.992781
      757.100000       0.991994
      757.200000       0.991082
      757.300000       0.990157
      757.400000       0.989548
      757.500000       0.988642
      757.600000       0.987809
      757.700000       0.986933
      757.800000       0.985985
      757.900000       0.984905
      758.000000       0.984151
      758.100000       0.983277
      758.200000       0.982205
      758.300000       0.981312
      758.400000       0.980409
      758.500000       0.979383
      758.600000       0.978371
      758.700000       0.977454
      758.800000       0.976618
      758.900000       0.975538
      759.000000       0.974452
      759.100000       0.973374
      759.200000       0.972467
      759.300000       0.971838
      759.400000       0.971093
      759.500000       0.970613
      759.600000       0.970076
      759.700000       0.969812
      759.800000       0.969690
      759.900000       0.969553
      760.000000       0.969290
      760.100000       0.969389
      760.200000       0.969150
      760.300000       0.969112
      760.400000       0.969002
      760.500000       0.968971
      760.600000       0.968989
      760.700000       0.968834
      760.800000       0.969082
      760.900000       0.969022
      761.000000       0.969043
      761.100000       0.969321
      761.200000       0.969445
      761.300000       0.969930
      761.400000       0.970396
      761.500000       0.971091
      761.600000       0.971762
      761.700000       0.972530
      761.800000       0.973418
      761.900000       0.974328
      762.000000       0.975584
      762.100000       0.976628
      762.200000       0.977573
      762.300000       0.978788
      762.400000       0.979777
      762.500000       0.980584
      762.600000       0.981284
      762.700000       0.981938
      762.800000       0.982011
      762.900000       0.982278
      763.000000       0.982030
      763.100000       0.981307
      763.200000       0.980323
      763.300000       0.978693
      763.400000       0.976874
      763.500000       0.974436
      763.600000       0.971181
      763.700000       0.968067
      763.800000       0.964097
      763.900000       0.959957
      764.000000       0.955446
      764.100000       0.950168
      764.200000       0.944510
      764.300000       0.938382
      764.400000       0.931621
      764.500000       0.924441
      764.600000       0.917264
      764.700000       0.909319
      764.800000       0.901040
      764.900000       0.892331
      765.000000       0.883018
      765.100000       0.873401
      765.200000       0.863607
      765.300000       0.853226
      765.400000       0.842279
      765.500000       0.831165
      765.600000       0.819617
      765.700000       0.807677
      765.800000       0.795582
      765.900000       0.783378
      766.000000       0.770479
      766.100000       0.757767
      766.200000       0.744853
      766.300000       0.731528
      766.400000       0.718038
      766.500000       0.704834
      766.600000       0.691167
      766.700000       0.677354
      766.800000       0.663622
      766.900000       0.649933
      767.000000       0.636003
      767.100000       0.622045
      767.200000       0.608340
      767.300000       0.594471
      767.400000       0.580528
      767.500000       0.566711
      767.600000       0.553105
      767.700000       0.539438
      767.800000       0.525692
      767.900000       0.512213
      768.000000       0.498866
      768.100000       0.485403
      768.200000       0.472090
      768.300000       0.458956
      768.400000       0.445934
      768.500000       0.432960
      768.600000       0.420040
      768.700000       0.407338
      768.800000       0.394716
      768.900000       0.382121
      769.000000       0.369709
      769.100000       0.357553
      769.200000       0.345450
      769.300000       0.333359
      769.400000       0.321607
      769.500000       0.309990
      769.600000       0.298362
      769.700000       0.287115
      769.800000       0.276039
      769.900000       0.265138
      770.000000       0.254467
      770.100000       0.244172
      770.200000       0.234043
      770.300000       0.224210
      770.400000       0.214768
      770.500000       0.205554
      770.600000       0.196790
      770.700000       0.188341
      770.800000       0.180247
      770.900000       0.172540
      771.000000       0.165158
      771.100000       0.158103
      771.200000       0.151424
      771.300000       0.145060
      771.400000       0.138976
      771.500000       0.133175
      771.600000       0.127623
      771.700000       0.122326
      771.800000       0.117245
      771.900000       0.112367
      772.000000       0.107677
      772.100000       0.103160
      772.200000       0.098796
      772.300000       0.094603
      772.400000       0.090564
      772.500000       0.086652
      772.600000       0.082894
      772.700000       0.079275
      772.800000       0.075773
      772.900000       0.072412
      773.000000       0.069194
      773.100000       0.066154
      773.200000       0.063223
      773.300000       0.060420
      773.400000       0.057756
      773.500000       0.055269
      773.600000       0.052883
      773.700000       0.050593
      773.800000       0.048392
      773.900000       0.046273
      774.000000       0.044253
      774.100000       0.042319
      774.200000       0.040469
      774.300000       0.038706
      774.400000       0.037022
      774.500000       0.035404
      774.600000       0.033695
      774.700000       0.031999
      774.800000       0.030427
      774.900000       0.028951
      775.000000       0.027565
      775.100000       0.026270
      775.200000       0.025045
      775.300000       0.023864
      775.400000       0.022605
      775.500000       0.021383
      775.600000       0.020238
      775.700000       0.019147
      775.800000       0.018111
      775.900000       0.017119
      776.000000       0.016167
      776.100000       0.015257
      776.200000       0.014380
      776.300000       0.013553
      776.400000       0.012755
      776.500000       0.012000
      776.600000       0.011340
      776.700000       0.010754
      776.800000       0.010198
      776.900000       0.009675
      777.000000       0.009181
      777.100000       0.008722
      777.200000       0.008290
      777.300000       0.007889
      777.400000       0.007520
      777.500000       0.007173
      777.600000       0.006850
      777.700000       0.006547
      777.800000       0.006259
      777.900000       0.005987
      778.000000       0.005725
      778.100000       0.005465
      778.200000       0.005213
      778.300000       0.004960
      778.400000       0.004703
      778.500000       0.004450
      778.600000       0.004183
      778.700000       0.003916
      778.800000       0.003648
      778.900000       0.003365
      779.000000       0.003093
      779.100000       0.002810
      779.200000       0.002531
      779.300000       0.002259
      779.400000       0.001982
      779.500000       0.001725
      779.600000       0.001463
      779.700000       0.001199
      779.800000       0.000925
      779.900000       0.000690
      780.000000       0.000420
      780.100000       0.000102
