03  , Filter noaa_12_avhrr_03.flt
Number of data points:
60
Wavenumber (cm-1)   Filter response
     2439.024000       0.012001
     2448.438700       0.011672
     2457.853400       0.015120
     2467.268100       0.026435
     2476.682800       0.051142
     2486.097500       0.102527
     2495.512200       0.204601
     2504.926900       0.394675
     2514.341600       0.624003
     2523.756300       0.778213
     2533.171000       0.850845
     2542.585700       0.876335
     2552.000400       0.884119
     2561.415100       0.892580
     2570.829800       0.907312
     2580.244500       0.921692
     2589.659200       0.926395
     2599.073900       0.928936
     2608.488600       0.936964
     2617.903300       0.946479
     2627.318000       0.950912
     2636.732700       0.942965
     2646.147400       0.927179
     2655.562100       0.917637
     2664.976800       0.918151
     2674.391500       0.926260
     2683.806200       0.939830
     2693.220900       0.955075
     2702.635600       0.959157
     2712.050300       0.945560
     2721.465000       0.944830
     2730.879700       0.978186
     2740.294400       1.000000
     2749.709100       0.972050
     2759.123800       0.930396
     2768.538500       0.897851
     2777.953200       0.799081
     2787.367900       0.578484
     2796.782600       0.334369
     2806.197300       0.176021
     2815.612000       0.096108
     2825.026700       0.056908
     2834.441400       0.038192
     2843.856100       0.027252
     2853.270800       0.019908
     2862.685500       0.016380
     2872.100200       0.015397
     2881.514900       0.014517
     2890.929600       0.012924
     2900.344300       0.011921
     2909.759000       0.012239
     2919.173700       0.012971
     2928.588400       0.013202
     2938.003100       0.013058
     2947.417800       0.012949
     2956.832500       0.012969
     2966.247200       0.013013
     2975.661900       0.013018
     2985.076600       0.013001
     2994.491300       0.000000
