15,   channel 15 SRF from file IR123.txt received February 2021 from Eunha Sohn (KMA)
Number of data points:
1443
Wavenumber (cm-1)   Filter response
      740.700000       0.000000
      740.800000       0.000068
      740.900000       0.000225
      741.000000       0.000319
      741.100000       0.000414
      741.200000       0.000498
      741.300000       0.000592
      741.400000       0.000771
      741.500000       0.000930
      741.600000       0.001027
      741.700000       0.001121
      741.800000       0.001221
      741.900000       0.001319
      742.000000       0.001420
      742.100000       0.001521
      742.200000       0.001622
      742.300000       0.001726
      742.400000       0.001827
      742.500000       0.001932
      742.600000       0.002036
      742.700000       0.002140
      742.800000       0.002247
      742.900000       0.002353
      743.000000       0.002462
      743.100000       0.002571
      743.200000       0.002684
      743.300000       0.002798
      743.400000       0.002914
      743.500000       0.003034
      743.600000       0.003157
      743.700000       0.003283
      743.800000       0.003410
      743.900000       0.003541
      744.000000       0.003675
      744.100000       0.003809
      744.200000       0.003947
      744.300000       0.004084
      744.400000       0.004223
      744.500000       0.004364
      744.600000       0.004503
      744.700000       0.004645
      744.800000       0.004786
      744.900000       0.004928
      745.000000       0.005071
      745.100000       0.005216
      745.200000       0.005364
      745.300000       0.005516
      745.400000       0.005671
      745.500000       0.005834
      745.600000       0.006003
      745.700000       0.006180
      745.800000       0.006370
      745.900000       0.006567
      746.000000       0.006779
      746.100000       0.007003
      746.200000       0.007238
      746.300000       0.007449
      746.400000       0.007511
      746.500000       0.007560
      746.600000       0.007608
      746.700000       0.007657
      746.800000       0.007708
      746.900000       0.007758
      747.000000       0.007807
      747.100000       0.007859
      747.200000       0.007910
      747.300000       0.007962
      747.400000       0.008013
      747.500000       0.008064
      747.600000       0.008116
      747.700000       0.008167
      747.800000       0.008220
      747.900000       0.008272
      748.000000       0.008325
      748.100000       0.008378
      748.200000       0.008430
      748.300000       0.008482
      748.400000       0.008536
      748.500000       0.008588
      748.600000       0.008643
      748.700000       0.008698
      748.800000       0.008751
      748.900000       0.008806
      749.000000       0.008860
      749.100000       0.008916
      749.200000       0.008971
      749.300000       0.009026
      749.400000       0.009082
      749.500000       0.009138
      749.600000       0.009195
      749.700000       0.009252
      749.800000       0.009306
      749.900000       0.009362
      750.000000       0.009418
      750.100000       0.009475
      750.200000       0.009533
      750.300000       0.009590
      750.400000       0.009645
      750.500000       0.009703
      750.600000       0.009761
      750.700000       0.009819
      750.800000       0.009877
      750.900000       0.009936
      751.000000       0.009995
      751.100000       0.010053
      751.200000       0.010112
      751.300000       0.010183
      751.400000       0.010255
      751.500000       0.010327
      751.600000       0.010399
      751.700000       0.010472
      751.800000       0.010545
      751.900000       0.010619
      752.000000       0.010691
      752.100000       0.010767
      752.200000       0.010841
      752.300000       0.010915
      752.400000       0.010991
      752.500000       0.011068
      752.600000       0.011144
      752.700000       0.011220
      752.800000       0.011296
      752.900000       0.011375
      753.000000       0.011453
      753.100000       0.011531
      753.200000       0.011611
      753.300000       0.011691
      753.400000       0.011773
      753.500000       0.011854
      753.600000       0.011937
      753.700000       0.012021
      753.800000       0.012105
      753.900000       0.012190
      754.000000       0.012276
      754.100000       0.012363
      754.200000       0.012450
      754.300000       0.012535
      754.400000       0.012621
      754.500000       0.012711
      754.600000       0.012795
      754.700000       0.012882
      754.800000       0.012969
      754.900000       0.013055
      755.000000       0.013139
      755.100000       0.013226
      755.200000       0.013314
      755.300000       0.013400
      755.400000       0.013487
      755.500000       0.013581
      755.600000       0.013710
      755.700000       0.013869
      755.800000       0.014090
      755.900000       0.014315
      756.000000       0.014537
      756.100000       0.014762
      756.200000       0.014987
      756.300000       0.015212
      756.400000       0.015439
      756.500000       0.015664
      756.600000       0.015890
      756.700000       0.016117
      756.800000       0.016345
      756.900000       0.016575
      757.000000       0.016806
      757.100000       0.017037
      757.200000       0.017270
      757.300000       0.017506
      757.400000       0.017739
      757.500000       0.017976
      757.600000       0.018213
      757.700000       0.018452
      757.800000       0.018693
      757.900000       0.018936
      758.000000       0.019179
      758.100000       0.019423
      758.200000       0.019674
      758.300000       0.019921
      758.400000       0.020171
      758.500000       0.020421
      758.600000       0.020671
      758.700000       0.020920
      758.800000       0.021176
      758.900000       0.021432
      759.000000       0.021684
      759.100000       0.021941
      759.200000       0.022199
      759.300000       0.022456
      759.400000       0.022713
      759.500000       0.023004
      759.600000       0.023398
      759.700000       0.023820
      759.800000       0.024444
      759.900000       0.025075
      760.000000       0.025711
      760.100000       0.026353
      760.200000       0.026994
      760.300000       0.027639
      760.400000       0.028285
      760.500000       0.028939
      760.600000       0.029595
      760.700000       0.030252
      760.800000       0.030906
      760.900000       0.031572
      761.000000       0.032230
      761.100000       0.032893
      761.200000       0.033555
      761.300000       0.034220
      761.400000       0.034886
      761.500000       0.035548
      761.600000       0.036221
      761.700000       0.036888
      761.800000       0.037557
      761.900000       0.038234
      762.000000       0.038904
      762.100000       0.039583
      762.200000       0.040264
      762.300000       0.040950
      762.400000       0.041633
      762.500000       0.042320
      762.600000       0.043008
      762.700000       0.043699
      762.800000       0.044405
      762.900000       0.045111
      763.000000       0.045809
      763.100000       0.046799
      763.200000       0.047864
      763.300000       0.048945
      763.400000       0.050048
      763.500000       0.051175
      763.600000       0.052307
      763.700000       0.053475
      763.800000       0.054661
      763.900000       0.055885
      764.000000       0.057170
      764.100000       0.058481
      764.200000       0.059827
      764.300000       0.061190
      764.400000       0.062562
      764.500000       0.063984
      764.600000       0.065417
      764.700000       0.066879
      764.800000       0.068356
      764.900000       0.069861
      765.000000       0.071390
      765.100000       0.072940
      765.200000       0.074528
      765.300000       0.076159
      765.400000       0.077853
      765.500000       0.079583
      765.600000       0.081331
      765.700000       0.083110
      765.800000       0.084960
      765.900000       0.086923
      766.000000       0.088940
      766.100000       0.091023
      766.200000       0.093129
      766.300000       0.095323
      766.400000       0.097628
      766.500000       0.099984
      766.600000       0.102401
      766.700000       0.104910
      766.800000       0.107460
      766.900000       0.110097
      767.000000       0.112781
      767.100000       0.115531
      767.200000       0.118316
      767.300000       0.121195
      767.400000       0.124083
      767.500000       0.127019
      767.600000       0.129996
      767.700000       0.133025
      767.800000       0.136089
      767.900000       0.139217
      768.000000       0.142416
      768.100000       0.145655
      768.200000       0.148961
      768.300000       0.152335
      768.400000       0.155844
      768.500000       0.159419
      768.600000       0.163067
      768.700000       0.166905
      768.800000       0.170820
      768.900000       0.174826
      769.000000       0.179023
      769.100000       0.183315
      769.200000       0.187753
      769.300000       0.192323
      769.400000       0.197012
      769.500000       0.201817
      769.600000       0.206704
      769.700000       0.211687
      769.800000       0.216758
      769.900000       0.221915
      770.000000       0.227138
      770.100000       0.232369
      770.200000       0.237652
      770.300000       0.242982
      770.400000       0.248254
      770.500000       0.253667
      770.600000       0.259064
      770.700000       0.264567
      770.800000       0.270034
      770.900000       0.275651
      771.000000       0.281338
      771.100000       0.287147
      771.200000       0.293085
      771.300000       0.299140
      771.400000       0.305407
      771.500000       0.311823
      771.600000       0.318452
      771.700000       0.325208
      771.800000       0.332196
      771.900000       0.339413
      772.000000       0.346769
      772.100000       0.354328
      772.200000       0.361991
      772.300000       0.369763
      772.400000       0.377664
      772.500000       0.385583
      772.600000       0.393577
      772.700000       0.401562
      772.800000       0.409477
      772.900000       0.417413
      773.000000       0.425221
      773.100000       0.432909
      773.200000       0.440661
      773.300000       0.448261
      773.400000       0.455770
      773.500000       0.463354
      773.600000       0.470889
      773.700000       0.478305
      773.800000       0.485760
      773.900000       0.493402
      774.000000       0.500960
      774.100000       0.508718
      774.200000       0.516638
      774.300000       0.524566
      774.400000       0.532681
      774.500000       0.540921
      774.600000       0.549252
      774.700000       0.557657
      774.800000       0.566182
      774.900000       0.574819
      775.000000       0.583462
      775.100000       0.592080
      775.200000       0.600759
      775.300000       0.609368
      775.400000       0.617821
      775.500000       0.626187
      775.600000       0.634550
      775.700000       0.642531
      775.800000       0.650482
      775.900000       0.658314
      776.000000       0.665790
      776.100000       0.673136
      776.200000       0.680205
      776.300000       0.686964
      776.400000       0.693715
      776.500000       0.700363
      776.600000       0.706854
      776.700000       0.713373
      776.800000       0.719691
      776.900000       0.725988
      777.000000       0.732332
      777.100000       0.738860
      777.200000       0.745114
      777.300000       0.751494
      777.400000       0.757938
      777.500000       0.764344
      777.600000       0.770646
      777.700000       0.776928
      777.800000       0.783140
      777.900000       0.789255
      778.000000       0.795110
      778.100000       0.801003
      778.200000       0.806706
      778.300000       0.812262
      778.400000       0.817576
      778.500000       0.822529
      778.600000       0.827357
      778.700000       0.831988
      778.800000       0.836325
      778.900000       0.840307
      779.000000       0.844031
      779.100000       0.847538
      779.200000       0.850763
      779.300000       0.853842
      779.400000       0.856574
      779.500000       0.859057
      779.600000       0.861508
      779.700000       0.863714
      779.800000       0.866847
      779.900000       0.867571
      780.000000       0.868879
      780.100000       0.870322
      780.200000       0.871991
      780.300000       0.873475
      780.400000       0.875123
      780.500000       0.876670
      780.600000       0.878600
      780.700000       0.880313
      780.800000       0.882477
      780.900000       0.884612
      781.000000       0.886856
      781.100000       0.889039
      781.200000       0.891044
      781.300000       0.893138
      781.400000       0.895151
      781.500000       0.896915
      781.600000       0.898521
      781.700000       0.899906
      781.800000       0.901082
      781.900000       0.901799
      782.000000       0.902336
      782.100000       0.902577
      782.200000       0.902573
      782.300000       0.902632
      782.400000       0.902187
      782.500000       0.901945
      782.600000       0.901449
      782.700000       0.901041
      782.800000       0.900501
      782.900000       0.900093
      783.000000       0.899810
      783.100000       0.899566
      783.200000       0.899548
      783.300000       0.899616
      783.400000       0.899648
      783.500000       0.899950
      783.600000       0.900448
      783.700000       0.900917
      783.800000       0.901359
      783.900000       0.901845
      784.000000       0.902269
      784.100000       0.902571
      784.200000       0.902916
      784.300000       0.902897
      784.400000       0.902926
      784.500000       0.902670
      784.600000       0.902293
      784.700000       0.901810
      784.800000       0.901126
      784.900000       0.900140
      785.000000       0.899115
      785.100000       0.898173
      785.200000       0.897026
      785.300000       0.896061
      785.400000       0.895159
      785.500000       0.894231
      785.600000       0.893538
      785.700000       0.893061
      785.800000       0.892698
      785.900000       0.892384
      786.000000       0.892342
      786.100000       0.892336
      786.200000       0.892602
      786.300000       0.892956
      786.400000       0.893314
      786.500000       0.893520
      786.600000       0.893809
      786.700000       0.893952
      786.800000       0.894011
      786.900000       0.893919
      787.000000       0.893651
      787.100000       0.893315
      787.200000       0.892572
      787.300000       0.891876
      787.400000       0.890787
      787.500000       0.889859
      787.600000       0.888617
      787.700000       0.887539
      787.800000       0.886339
      787.900000       0.885256
      788.000000       0.884135
      788.100000       0.883214
      788.200000       0.882590
      788.300000       0.881993
      788.400000       0.881710
      788.500000       0.881828
      788.600000       0.881948
      788.700000       0.882217
      788.800000       0.882913
      788.900000       0.883538
      789.000000       0.884437
      789.100000       0.885209
      789.200000       0.885950
      789.300000       0.886750
      789.400000       0.887474
      789.500000       0.887999
      789.600000       0.888197
      789.700000       0.888466
      789.800000       0.888345
      789.900000       0.888064
      790.000000       0.887660
      790.100000       0.887055
      790.200000       0.886383
      790.300000       0.885397
      790.400000       0.884485
      790.500000       0.883457
      790.600000       0.882535
      790.700000       0.881923
      790.800000       0.881217
      790.900000       0.880939
      791.000000       0.880750
      791.100000       0.880764
      791.200000       0.880975
      791.300000       0.881598
      791.400000       0.882177
      791.500000       0.882988
      791.600000       0.883792
      791.700000       0.884566
      791.800000       0.885436
      791.900000       0.885979
      792.000000       0.886595
      792.100000       0.887120
      792.200000       0.887475
      792.300000       0.887535
      792.400000       0.887456
      792.500000       0.887284
      792.600000       0.886838
      792.700000       0.886305
      792.800000       0.885724
      792.900000       0.885222
      793.000000       0.884769
      793.100000       0.884306
      793.200000       0.884019
      793.300000       0.883858
      793.400000       0.884013
      793.500000       0.884287
      793.600000       0.884891
      793.700000       0.885634
      793.800000       0.886652
      793.900000       0.888031
      794.000000       0.889476
      794.100000       0.891111
      794.200000       0.892695
      794.300000       0.894442
      794.400000       0.896097
      794.500000       0.897671
      794.600000       0.899117
      794.700000       0.900485
      794.800000       0.901609
      794.900000       0.902306
      795.000000       0.902860
      795.100000       0.903183
      795.200000       0.903270
      795.300000       0.903254
      795.400000       0.903059
      795.500000       0.902766
      795.600000       0.902349
      795.700000       0.901876
      795.800000       0.901405
      795.900000       0.901051
      796.000000       0.900889
      796.100000       0.900932
      796.200000       0.901154
      796.300000       0.901383
      796.400000       0.902103
      796.500000       0.903024
      796.600000       0.904110
      796.700000       0.905360
      796.800000       0.906747
      796.900000       0.908295
      797.000000       0.910080
      797.100000       0.911588
      797.200000       0.913033
      797.300000       0.914621
      797.400000       0.915690
      797.500000       0.916694
      797.600000       0.917548
      797.700000       0.918049
      797.800000       0.918330
      797.900000       0.918441
      798.000000       0.918354
      798.100000       0.918080
      798.200000       0.917804
      798.300000       0.917456
      798.400000       0.917090
      798.500000       0.917062
      798.600000       0.916962
      798.700000       0.917228
      798.800000       0.917482
      798.900000       0.918124
      799.000000       0.918958
      799.100000       0.920186
      799.200000       0.921502
      799.300000       0.923224
      799.400000       0.924979
      799.500000       0.926795
      799.600000       0.928761
      799.700000       0.930804
      799.800000       0.932862
      799.900000       0.934588
      800.000000       0.936431
      800.100000       0.938115
      800.200000       0.939473
      800.300000       0.940599
      800.400000       0.941526
      800.500000       0.942179
      800.600000       0.942883
      800.700000       0.943175
      800.800000       0.943234
      800.900000       0.943242
      801.000000       0.943223
      801.100000       0.943149
      801.200000       0.943011
      801.300000       0.942987
      801.400000       0.943168
      801.500000       0.943437
      801.600000       0.943676
      801.700000       0.944325
      801.800000       0.945209
      801.900000       0.945986
      802.000000       0.947071
      802.100000       0.948544
      802.200000       0.949765
      802.300000       0.951212
      802.400000       0.952813
      802.500000       0.954393
      802.600000       0.955873
      802.700000       0.957344
      802.800000       0.958690
      802.900000       0.959778
      803.000000       0.960866
      803.100000       0.961566
      803.200000       0.962234
      803.300000       0.962585
      803.400000       0.962710
      803.500000       0.962762
      803.600000       0.962613
      803.700000       0.962458
      803.800000       0.962385
      803.900000       0.962525
      804.000000       0.962457
      804.100000       0.962460
      804.200000       0.962830
      804.300000       0.963085
      804.400000       0.963747
      804.500000       0.964380
      804.600000       0.965180
      804.700000       0.966205
      804.800000       0.967145
      804.900000       0.968154
      805.000000       0.969286
      805.100000       0.970319
      805.200000       0.971276
      805.300000       0.972148
      805.400000       0.973077
      805.500000       0.974096
      805.600000       0.974890
      805.700000       0.975498
      805.800000       0.976049
      805.900000       0.976448
      806.000000       0.977078
      806.100000       0.977413
      806.200000       0.977888
      806.300000       0.978153
      806.400000       0.978641
      806.500000       0.978974
      806.600000       0.979441
      806.700000       0.980037
      806.800000       0.980678
      806.900000       0.981366
      807.000000       0.982255
      807.100000       0.983205
      807.200000       0.984184
      807.300000       0.985283
      807.400000       0.986466
      807.500000       0.987614
      807.600000       0.988604
      807.700000       0.989637
      807.800000       0.990533
      807.900000       0.991317
      808.000000       0.992037
      808.100000       0.992553
      808.200000       0.992900
      808.300000       0.993142
      808.400000       0.993271
      808.500000       0.993225
      808.600000       0.993397
      808.700000       0.993399
      808.800000       0.993299
      808.900000       0.993237
      809.000000       0.993002
      809.100000       0.993045
      809.200000       0.992923
      809.300000       0.993086
      809.400000       0.993371
      809.500000       0.993570
      809.600000       0.994067
      809.700000       0.994486
      809.800000       0.995153
      809.900000       0.995682
      810.000000       0.996367
      810.100000       0.997095
      810.200000       0.997802
      810.300000       0.998411
      810.400000       0.998929
      810.500000       0.999360
      810.600000       0.999756
      810.700000       0.999992
      810.800000       0.999986
      810.900000       0.999877
      811.000000       0.999597
      811.100000       0.999425
      811.200000       0.998926
      811.300000       0.998436
      811.400000       0.998051
      811.500000       0.997621
      811.600000       0.997256
      811.700000       0.997026
      811.800000       0.996621
      811.900000       0.996503
      812.000000       0.996445
      812.100000       0.996401
      812.200000       0.996479
      812.300000       0.996532
      812.400000       0.996851
      812.500000       0.997004
      812.600000       0.997145
      812.700000       0.997386
      812.800000       0.997555
      812.900000       0.997672
      813.000000       0.997559
      813.100000       0.997342
      813.200000       0.996948
      813.300000       0.996467
      813.400000       0.995929
      813.500000       0.995001
      813.600000       0.993944
      813.700000       0.993046
      813.800000       0.991791
      813.900000       0.990819
      814.000000       0.989808
      814.100000       0.988596
      814.200000       0.987485
      814.300000       0.986775
      814.400000       0.986019
      814.500000       0.985390
      814.600000       0.984908
      814.700000       0.984560
      814.800000       0.984514
      814.900000       0.984507
      815.000000       0.984658
      815.100000       0.984996
      815.200000       0.985406
      815.300000       0.985700
      815.400000       0.986109
      815.500000       0.986547
      815.600000       0.986838
      815.700000       0.986991
      815.800000       0.986984
      815.900000       0.986945
      816.000000       0.986473
      816.100000       0.986075
      816.200000       0.985403
      816.300000       0.984440
      816.400000       0.983519
      816.500000       0.982406
      816.600000       0.981175
      816.700000       0.979954
      816.800000       0.979001
      816.900000       0.977790
      817.000000       0.976729
      817.100000       0.975973
      817.200000       0.975336
      817.300000       0.974728
      817.400000       0.974094
      817.500000       0.973952
      817.600000       0.973935
      817.700000       0.973834
      817.800000       0.973929
      817.900000       0.974106
      818.000000       0.974262
      818.100000       0.974377
      818.200000       0.974493
      818.300000       0.974545
      818.400000       0.974367
      818.500000       0.974016
      818.600000       0.973391
      818.700000       0.972728
      818.800000       0.971868
      818.900000       0.970784
      819.000000       0.969510
      819.100000       0.968276
      819.200000       0.966639
      819.300000       0.965320
      819.400000       0.963874
      819.500000       0.962700
      819.600000       0.961319
      819.700000       0.960076
      819.800000       0.958999
      819.900000       0.958149
      820.000000       0.957500
      820.100000       0.957005
      820.200000       0.956713
      820.300000       0.956512
      820.400000       0.956389
      820.500000       0.956480
      820.600000       0.956645
      820.700000       0.956796
      820.800000       0.956908
      820.900000       0.957008
      821.000000       0.957159
      821.100000       0.957158
      821.200000       0.956953
      821.300000       0.956762
      821.400000       0.956239
      821.500000       0.955589
      821.600000       0.954862
      821.700000       0.954080
      821.800000       0.953108
      821.900000       0.951941
      822.000000       0.950763
      822.100000       0.949419
      822.200000       0.948371
      822.300000       0.947185
      822.400000       0.945768
      822.500000       0.944721
      822.600000       0.943713
      822.700000       0.942766
      822.800000       0.942078
      822.900000       0.941510
      823.000000       0.941117
      823.100000       0.940650
      823.200000       0.940495
      823.300000       0.940382
      823.400000       0.940244
      823.500000       0.940137
      823.600000       0.939922
      823.700000       0.939609
      823.800000       0.939285
      823.900000       0.938931
      824.000000       0.938303
      824.100000       0.937695
      824.200000       0.936931
      824.300000       0.936006
      824.400000       0.935009
      824.500000       0.933909
      824.600000       0.932526
      824.700000       0.931362
      824.800000       0.929919
      824.900000       0.928547
      825.000000       0.927399
      825.100000       0.926140
      825.200000       0.924899
      825.300000       0.923705
      825.400000       0.922463
      825.500000       0.921501
      825.600000       0.920624
      825.700000       0.919583
      825.800000       0.918748
      825.900000       0.918001
      826.000000       0.917271
      826.100000       0.916549
      826.200000       0.915743
      826.300000       0.915162
      826.400000       0.914202
      826.500000       0.913599
      826.600000       0.912942
      826.700000       0.912158
      826.800000       0.911518
      826.900000       0.910816
      827.000000       0.910138
      827.100000       0.909512
      827.200000       0.909076
      827.300000       0.908488
      827.400000       0.907901
      827.500000       0.907487
      827.600000       0.907052
      827.700000       0.906828
      827.800000       0.906386
      827.900000       0.905964
      828.000000       0.905700
      828.100000       0.905381
      828.200000       0.905026
      828.300000       0.904580
      828.400000       0.904217
      828.500000       0.903838
      828.600000       0.903437
      828.700000       0.903093
      828.800000       0.902708
      828.900000       0.902235
      829.000000       0.901800
      829.100000       0.901496
      829.200000       0.901071
      829.300000       0.900726
      829.400000       0.900510
      829.500000       0.900109
      829.600000       0.899796
      829.700000       0.899707
      829.800000       0.899637
      829.900000       0.899547
      830.000000       0.899586
      830.100000       0.899696
      830.200000       0.899927
      830.300000       0.900170
      830.400000       0.900483
      830.500000       0.901022
      830.600000       0.901423
      830.700000       0.901868
      830.800000       0.902355
      830.900000       0.902852
      831.000000       0.903355
      831.100000       0.903652
      831.200000       0.904052
      831.300000       0.904400
      831.400000       0.904732
      831.500000       0.905096
      831.600000       0.905183
      831.700000       0.905369
      831.800000       0.905536
      831.900000       0.905517
      832.000000       0.905543
      832.100000       0.905708
      832.200000       0.905856
      832.300000       0.906032
      832.400000       0.906178
      832.500000       0.906634
      832.600000       0.907129
      832.700000       0.907769
      832.800000       0.908527
      832.900000       0.909480
      833.000000       0.910432
      833.100000       0.911427
      833.200000       0.912468
      833.300000       0.913698
      833.400000       0.914758
      833.500000       0.916062
      833.600000       0.917120
      833.700000       0.918263
      833.800000       0.919125
      833.900000       0.919996
      834.000000       0.920908
      834.100000       0.921542
      834.200000       0.922044
      834.300000       0.922482
      834.400000       0.922824
      834.500000       0.923160
      834.600000       0.923247
      834.700000       0.923620
      834.800000       0.923769
      834.900000       0.924168
      835.000000       0.924411
      835.100000       0.925059
      835.200000       0.925542
      835.300000       0.926290
      835.400000       0.926931
      835.500000       0.927912
      835.600000       0.928819
      835.700000       0.929915
      835.800000       0.930916
      835.900000       0.932182
      836.000000       0.933151
      836.100000       0.934362
      836.200000       0.935417
      836.300000       0.936239
      836.400000       0.937128
      836.500000       0.937682
      836.600000       0.938025
      836.700000       0.938258
      836.800000       0.938284
      836.900000       0.938009
      837.000000       0.937753
      837.100000       0.937212
      837.200000       0.936736
      837.300000       0.936170
      837.400000       0.935223
      837.500000       0.934464
      837.600000       0.933631
      837.700000       0.932845
      837.800000       0.932051
      837.900000       0.931239
      838.000000       0.930474
      838.100000       0.929730
      838.200000       0.929107
      838.300000       0.928411
      838.400000       0.927865
      838.500000       0.927390
      838.600000       0.926716
      838.700000       0.926140
      838.800000       0.925362
      838.900000       0.924416
      839.000000       0.923558
      839.100000       0.922445
      839.200000       0.921296
      839.300000       0.919788
      839.400000       0.918208
      839.500000       0.916706
      839.600000       0.914743
      839.700000       0.912408
      839.800000       0.910089
      839.900000       0.907693
      840.000000       0.905118
      840.100000       0.902322
      840.200000       0.899020
      840.300000       0.895683
      840.400000       0.891781
      840.500000       0.887446
      840.600000       0.883219
      840.700000       0.878666
      840.800000       0.874302
      840.900000       0.869972
      841.000000       0.865520
      841.100000       0.861276
      841.200000       0.857019
      841.300000       0.852654
      841.400000       0.848168
      841.500000       0.843508
      841.600000       0.838525
      841.700000       0.833509
      841.800000       0.828317
      841.900000       0.823028
      842.000000       0.817546
      842.100000       0.811949
      842.200000       0.806464
      842.300000       0.800678
      842.400000       0.794847
      842.500000       0.788971
      842.600000       0.783120
      842.700000       0.776948
      842.800000       0.770673
      842.900000       0.764276
      843.000000       0.757736
      843.100000       0.750919
      843.200000       0.744026
      843.300000       0.736941
      843.400000       0.729919
      843.500000       0.722869
      843.600000       0.715627
      843.700000       0.708479
      843.800000       0.701533
      843.900000       0.694428
      844.000000       0.687281
      844.100000       0.680062
      844.200000       0.672881
      844.300000       0.665622
      844.400000       0.658334
      844.500000       0.651032
      844.600000       0.643691
      844.700000       0.636317
      844.800000       0.628956
      844.900000       0.621629
      845.000000       0.614211
      845.100000       0.606835
      845.200000       0.599532
      845.300000       0.592129
      845.400000       0.584822
      845.500000       0.577573
      845.600000       0.570145
      845.700000       0.562803
      845.800000       0.555495
      845.900000       0.548080
      846.000000       0.540665
      846.100000       0.533367
      846.200000       0.525893
      846.300000       0.518450
      846.400000       0.511107
      846.500000       0.503903
      846.600000       0.496632
      846.700000       0.489513
      846.800000       0.482536
      846.900000       0.475507
      847.000000       0.468553
      847.100000       0.461683
      847.200000       0.454806
      847.300000       0.447993
      847.400000       0.441262
      847.500000       0.434553
      847.600000       0.427940
      847.700000       0.421388
      847.800000       0.414847
      847.900000       0.408488
      848.000000       0.402207
      848.100000       0.395951
      848.200000       0.389838
      848.300000       0.383796
      848.400000       0.377813
      848.500000       0.371902
      848.600000       0.366066
      848.700000       0.360293
      848.800000       0.354629
      848.900000       0.348946
      849.000000       0.343326
      849.100000       0.337787
      849.200000       0.332262
      849.300000       0.326786
      849.400000       0.321361
      849.500000       0.315916
      849.600000       0.310593
      849.700000       0.305233
      849.800000       0.299982
      849.900000       0.294714
      850.000000       0.289551
      850.100000       0.284360
      850.200000       0.279276
      850.300000       0.274192
      850.400000       0.269218
      850.500000       0.264242
      850.600000       0.259419
      850.700000       0.254691
      850.800000       0.250008
      850.900000       0.245476
      851.000000       0.241011
      851.100000       0.236631
      851.200000       0.232340
      851.300000       0.228135
      851.400000       0.224032
      851.500000       0.219992
      851.600000       0.216011
      851.700000       0.212091
      851.800000       0.208244
      851.900000       0.204477
      852.000000       0.200761
      852.100000       0.197112
      852.200000       0.193525
      852.300000       0.189983
      852.400000       0.186492
      852.500000       0.183022
      852.600000       0.179652
      852.700000       0.176279
      852.800000       0.172922
      852.900000       0.169611
      853.000000       0.166392
      853.100000       0.163206
      853.200000       0.160064
      853.300000       0.156981
      853.400000       0.153971
      853.500000       0.151014
      853.600000       0.148141
      853.700000       0.145281
      853.800000       0.142522
      853.900000       0.139798
      854.000000       0.137156
      854.100000       0.134535
      854.200000       0.131982
      854.300000       0.129457
      854.400000       0.126997
      854.500000       0.124599
      854.600000       0.122238
      854.700000       0.119941
      854.800000       0.117655
      854.900000       0.115418
      855.000000       0.113248
      855.100000       0.111078
      855.200000       0.108940
      855.300000       0.106842
      855.400000       0.104791
      855.500000       0.102788
      855.600000       0.100811
      855.700000       0.098867
      855.800000       0.096954
      855.900000       0.095085
      856.000000       0.093258
      856.100000       0.091510
      856.200000       0.089807
      856.300000       0.088133
      856.400000       0.086484
      856.500000       0.084865
      856.600000       0.083276
      856.700000       0.081708
      856.800000       0.080156
      856.900000       0.078656
      857.000000       0.077180
      857.100000       0.075723
      857.200000       0.074302
      857.300000       0.072898
      857.400000       0.071504
      857.500000       0.070125
      857.600000       0.068761
      857.700000       0.067415
      857.800000       0.066091
      857.900000       0.064795
      858.000000       0.063507
      858.100000       0.062244
      858.200000       0.061023
      858.300000       0.059826
      858.400000       0.058662
      858.500000       0.057502
      858.600000       0.056370
      858.700000       0.055245
      858.800000       0.054140
      858.900000       0.053065
      859.000000       0.052003
      859.100000       0.050947
      859.200000       0.049901
      859.300000       0.048874
      859.400000       0.047865
      859.500000       0.046881
      859.600000       0.045910
      859.700000       0.044972
      859.800000       0.044044
      859.900000       0.043132
      860.000000       0.042247
      860.100000       0.041373
      860.200000       0.040542
      860.300000       0.039740
      860.400000       0.038954
      860.500000       0.038187
      860.600000       0.037431
      860.700000       0.036687
      860.800000       0.035961
      860.900000       0.035250
      861.000000       0.034550
      861.100000       0.033865
      861.200000       0.033198
      861.300000       0.032543
      861.400000       0.031911
      861.500000       0.031288
      861.600000       0.030683
      861.700000       0.030096
      861.800000       0.029530
      861.900000       0.028973
      862.000000       0.028428
      862.100000       0.027895
      862.200000       0.027376
      862.300000       0.026866
      862.400000       0.026362
      862.500000       0.025874
      862.600000       0.025396
      862.700000       0.024923
      862.800000       0.024455
      862.900000       0.023996
      863.000000       0.023539
      863.100000       0.023087
      863.200000       0.022642
      863.300000       0.022199
      863.400000       0.021761
      863.500000       0.021329
      863.600000       0.020897
      863.700000       0.020470
      863.800000       0.020057
      863.900000       0.019649
      864.000000       0.019248
      864.100000       0.018853
      864.200000       0.018463
      864.300000       0.018079
      864.400000       0.017698
      864.500000       0.017329
      864.600000       0.016965
      864.700000       0.016612
      864.800000       0.016264
      864.900000       0.015925
      865.000000       0.015596
      865.100000       0.015273
      865.200000       0.014960
      865.300000       0.014655
      865.400000       0.014357
      865.500000       0.014063
      865.600000       0.013777
      865.700000       0.013497
      865.800000       0.013224
      865.900000       0.012954
      866.000000       0.012688
      866.100000       0.012427
      866.200000       0.012169
      866.300000       0.011913
      866.400000       0.011662
      866.500000       0.011411
      866.600000       0.011162
      866.700000       0.010917
      866.800000       0.010673
      866.900000       0.010430
      867.000000       0.010191
      867.100000       0.009953
      867.200000       0.009719
      867.300000       0.009486
      867.400000       0.009256
      867.500000       0.009032
      867.600000       0.008814
      867.700000       0.008599
      867.800000       0.008389
      867.900000       0.008184
      868.000000       0.007984
      868.100000       0.007790
      868.200000       0.007598
      868.300000       0.007410
      868.400000       0.007227
      868.500000       0.007046
      868.600000       0.006868
      868.700000       0.006694
      868.800000       0.006520
      868.900000       0.006349
      869.000000       0.006179
      869.100000       0.006011
      869.200000       0.005845
      869.300000       0.005682
      869.400000       0.005520
      869.500000       0.005361
      869.600000       0.005208
      869.700000       0.005059
      869.800000       0.004916
      869.900000       0.004779
      870.000000       0.004648
      870.100000       0.004528
      870.200000       0.004416
      870.300000       0.004312
      870.400000       0.004220
      870.500000       0.004136
      870.600000       0.004063
      870.700000       0.004000
      870.800000       0.003943
      870.900000       0.003896
      871.000000       0.003854
      871.100000       0.003818
      871.200000       0.003784
      871.300000       0.003751
      871.400000       0.003717
      871.500000       0.003682
      871.600000       0.003640
      871.700000       0.003590
      871.800000       0.003536
      871.900000       0.003468
      872.000000       0.003393
      872.100000       0.003308
      872.200000       0.003205
      872.300000       0.003097
      872.400000       0.002976
      872.500000       0.002845
      872.600000       0.002709
      872.700000       0.002560
      872.800000       0.002409
      872.900000       0.002255
      873.000000       0.002098
      873.100000       0.001945
      873.200000       0.001790
      873.300000       0.001641
      873.400000       0.001498
      873.500000       0.001368
      873.600000       0.001075
      873.700000       0.000880
      873.800000       0.000776
      873.900000       0.000676
      874.000000       0.000584
      874.100000       0.000501
      874.200000       0.000427
      874.300000       0.000360
      874.400000       0.000300
      874.500000       0.000245
      874.600000       0.000196
      874.700000       0.000151
      874.800000       0.000105
      874.900000       0.000052
      875.000000       0.000011
      875.100000       0.000000
      875.200000       0.000000
      875.300000       0.000000
      875.400000       0.000000
      875.500000       0.000000
      875.600000       0.000000
      875.700000       0.000000
      875.800000       0.000000
      875.900000       0.000000
      876.000000       0.000000
      876.100000       0.000000
      876.200000       0.000000
      876.300000       0.000000
      876.400000       0.000000
      876.500000       0.000000
      876.600000       0.000000
      876.700000       0.000000
      876.800000       0.000000
      876.900000       0.000000
      877.000000       0.000000
      877.100000       0.000000
      877.200000       0.000000
      877.300000       0.000000
      877.400000       0.000000
      877.500000       0.000000
      877.600000       0.000000
      877.700000       0.000000
      877.800000       0.000000
      877.900000       0.000000
      878.000000       0.000000
      878.100000       0.000000
      878.200000       0.000000
      878.300000       0.000000
      878.400000       0.000000
      878.500000       0.000000
      878.600000       0.000000
      878.700000       0.000000
      878.800000       0.000000
      878.900000       0.000000
      879.000000       0.000000
      879.100000       0.000000
      879.200000       0.000000
      879.300000       0.000000
      879.400000       0.000000
      879.500000       0.000000
      879.600000       0.000000
      879.700000       0.000000
      879.800000       0.000000
      879.900000       0.000000
      880.000000       0.000000
      880.100000       0.000000
      880.200000       0.000000
      880.300000       0.000000
      880.400000       0.000000
      880.500000       0.000000
      880.600000       0.000000
      880.700000       0.000000
      880.800000       0.000000
      880.900000       0.000000
      881.000000       0.000000
      881.100000       0.000000
      881.200000       0.000000
      881.300000       0.000000
      881.400000       0.000000
      881.500000       0.000000
      881.600000       0.000000
      881.700000       0.000000
      881.800000       0.000000
      881.900000       0.000000
      882.000000       0.000000
      882.100000       0.000000
      882.200000       0.000000
      882.300000       0.000000
      882.400000       0.000000
      882.500000       0.000000
      882.600000       0.000000
      882.700000       0.000000
      882.800000       0.000000
      882.900000       0.000000
      883.000000       0.000000
      883.100000       0.000000
      883.200000       0.000000
      883.300000       0.000000
      883.400000       0.000000
      883.500000       0.000000
      883.600000       0.000000
      883.700000       0.000000
      883.800000       0.000000
      883.900000       0.000000
      884.000000       0.000000
      884.100000       0.000000
      884.200000       0.000000
      884.300000       0.000000
      884.400000       0.000000
      884.500000       0.000000
      884.600000       0.000000
      884.700000       0.000000
      884.800000       0.000000
      884.900000       0.000000
