03  , Filter noaa_14_avhrr_03.flt
Number of data points:
60
Wavenumber (cm-1)   Filter response
     2439.024000       0.013000
     2446.946900       0.014825
     2454.869800       0.017335
     2462.792700       0.022045
     2470.715600       0.032850
     2478.638500       0.054568
     2486.561400       0.093173
     2494.484300       0.157277
     2502.407200       0.260049
     2510.330100       0.405010
     2518.253000       0.578412
     2526.175900       0.751615
     2534.098800       0.874943
     2542.021700       0.926972
     2549.944600       0.936041
     2557.867500       0.929834
     2565.790400       0.926264
     2573.713300       0.934794
     2581.636200       0.948708
     2589.559100       0.961998
     2597.482000       0.976139
     2605.404900       0.991669
     2613.327800       1.000000
     2621.250700       0.993284
     2629.173600       0.981240
     2637.096500       0.978435
     2645.019400       0.982402
     2652.942300       0.980957
     2660.865200       0.972200
     2668.788100       0.964492
     2676.711000       0.961800
     2684.633900       0.958938
     2692.556800       0.951683
     2700.479700       0.943635
     2708.402600       0.939498
     2716.325500       0.936721
     2724.248400       0.928899
     2732.171300       0.914248
     2740.094200       0.897217
     2748.017100       0.884267
     2755.940000       0.887724
     2763.862900       0.918159
     2771.785800       0.951457
     2779.708700       0.940943
     2787.631600       0.859301
     2795.554500       0.718289
     2803.477400       0.536670
     2811.400300       0.351224
     2819.323200       0.206674
     2827.246100       0.123393
     2835.169000       0.081098
     2843.091900       0.057263
     2851.014800       0.042130
     2858.937700       0.031937
     2866.860600       0.024111
     2874.783500       0.018488
     2882.706400       0.015156
     2890.629300       0.013625
     2898.552200       0.013000
     2906.475100       0.000000
