11,   from S2-SRF_COPE-GSEG-EOPG-TN-15-0007_3.0.xlsx (column S2A_SR_AV_B10)
Number of data points:
78
Wavenumber (cm-1)   Filter response
     7077.140800       0.000000
     7082.153000       0.000025
     7087.172200       0.000109
     7092.198600       0.000121
     7097.232100       0.000032
     7102.272700       0.000039
     7107.320500       0.000056
     7112.375500       0.000062
     7117.437700       0.000051
     7122.507100       0.000060
     7127.583700       0.000106
     7132.667600       0.000197
     7137.758700       0.000219
     7142.857100       0.000177
     7147.962800       0.000350
     7153.075800       0.000545
     7158.196100       0.001125
     7163.323800       0.002400
     7168.458800       0.005500
     7173.601100       0.013688
     7178.750900       0.032620
     7183.908000       0.068372
     7189.072600       0.127481
     7194.244600       0.219308
     7199.424000       0.351455
     7204.611000       0.507854
     7209.805300       0.655301
     7215.007200       0.764525
     7220.216600       0.830745
     7225.433500       0.868635
     7230.658000       0.894075
     7235.890000       0.915014
     7241.129600       0.933275
     7246.376800       0.948599
     7251.631600       0.960890
     7256.894000       0.970373
     7262.164100       0.978085
     7267.441900       0.984854
     7272.727300       0.990956
     7278.020400       0.996050
     7283.321200       0.999092
     7288.629700       1.000000
     7293.946000       0.999049
     7299.270100       0.996479
     7304.601900       0.992811
     7309.941500       0.987945
     7315.289000       0.981721
     7320.644200       0.973750
     7326.007300       0.962015
     7331.378300       0.942126
     7336.757200       0.910000
     7342.143900       0.861210
     7347.538600       0.783168
     7352.941200       0.662498
     7358.351700       0.506472
     7363.770300       0.342389
     7369.196800       0.200855
     7374.631300       0.101545
     7380.073800       0.044656
     7385.524400       0.018845
     7390.983000       0.008017
     7396.449700       0.003736
     7401.924500       0.001968
     7407.407400       0.001089
     7412.898400       0.000658
     7418.397600       0.000449
     7423.905000       0.000372
     7429.420500       0.000334
     7434.944200       0.000176
     7440.476200       0.000124
     7446.016400       0.000088
     7451.564800       0.000110
     7457.121600       0.000076
     7462.686600       0.000029
     7468.259900       0.000031
     7473.841600       0.000054
     7479.431600       0.000238
     7485.029900       0.000000
