12,   channel TIR5 SRF from LSTM_ISRF_all_bands.xlsx
Number of data points:
2697
Wavenumber (cm-1)   Filter response
      786.503598       0.000563
      786.534529       0.000566
      786.565462       0.000569
      786.596397       0.000572
      786.627335       0.000575
      786.658276       0.000578
      786.689218       0.000581
      786.720164       0.000584
      786.751111       0.000587
      786.782061       0.000590
      786.813014       0.000593
      786.843969       0.000595
      786.874926       0.000598
      786.905886       0.000600
      786.936848       0.000603
      786.967813       0.000605
      786.998780       0.000608
      787.029750       0.000610
      787.060722       0.000613
      787.091696       0.000615
      787.122673       0.000618
      787.153652       0.000620
      787.184634       0.000623
      787.215618       0.000626
      787.246605       0.000628
      787.277594       0.000631
      787.308586       0.000634
      787.339580       0.000636
      787.370576       0.000639
      787.401575       0.000642
      787.432576       0.000645
      787.463580       0.000647
      787.494586       0.000650
      787.525595       0.000653
      787.556606       0.000656
      787.587619       0.000658
      787.618635       0.000661
      787.649653       0.000664
      787.680674       0.000667
      787.711698       0.000670
      787.742723       0.000673
      787.773751       0.000675
      787.804782       0.000678
      787.835815       0.000681
      787.866851       0.000684
      787.897888       0.000687
      787.928929       0.000690
      787.959972       0.000693
      787.991017       0.000697
      788.022065       0.000700
      788.053115       0.000703
      788.084167       0.000706
      788.115222       0.000709
      788.146280       0.000712
      788.177340       0.000715
      788.208402       0.000719
      788.239467       0.000722
      788.270534       0.000725
      788.301604       0.000728
      788.332676       0.000731
      788.363751       0.000734
      788.394828       0.000738
      788.425908       0.000741
      788.456990       0.000744
      788.488074       0.000747
      788.519161       0.000750
      788.550250       0.000754
      788.581342       0.000757
      788.612436       0.000761
      788.643533       0.000764
      788.674632       0.000768
      788.705734       0.000772
      788.736838       0.000776
      788.767944       0.000780
      788.799053       0.000784
      788.830165       0.000788
      788.861279       0.000792
      788.892395       0.000797
      788.923514       0.000801
      788.954635       0.000805
      788.985759       0.000810
      789.016885       0.000814
      789.048014       0.000819
      789.079145       0.000824
      789.110278       0.000828
      789.141414       0.000833
      789.172553       0.000838
      789.203693       0.000843
      789.234837       0.000847
      789.265983       0.000852
      789.297131       0.000857
      789.328282       0.000862
      789.359435       0.000867
      789.390590       0.000872
      789.421749       0.000877
      789.452909       0.000881
      789.484072       0.000886
      789.515238       0.000891
      789.546406       0.000897
      789.577576       0.000902
      789.608749       0.000907
      789.639924       0.000912
      789.671102       0.000918
      789.702282       0.000923
      789.733465       0.000928
      789.764650       0.000934
      789.795838       0.000940
      789.827028       0.000945
      789.858220       0.000951
      789.889415       0.000957
      789.920613       0.000963
      789.951813       0.000969
      789.983015       0.000975
      790.014220       0.000981
      790.045428       0.000987
      790.076637       0.000993
      790.107850       0.001000
      790.139064       0.001006
      790.170282       0.001012
      790.201501       0.001019
      790.232724       0.001025
      790.263948       0.001032
      790.295175       0.001038
      790.326405       0.001045
      790.357637       0.001051
      790.388871       0.001058
      790.420108       0.001065
      790.451348       0.001071
      790.482590       0.001078
      790.513834       0.001085
      790.545081       0.001091
      790.576330       0.001098
      790.607582       0.001105
      790.638836       0.001112
      790.670093       0.001118
      790.701352       0.001125
      790.732614       0.001132
      790.763878       0.001138
      790.795145       0.001145
      790.826414       0.001152
      790.857685       0.001158
      790.888959       0.001164
      790.920236       0.001171
      790.951515       0.001177
      790.982796       0.001183
      791.014080       0.001190
      791.045366       0.001196
      791.076655       0.001202
      791.107947       0.001208
      791.139241       0.001215
      791.170537       0.001221
      791.201836       0.001227
      791.233137       0.001234
      791.264441       0.001240
      791.295747       0.001247
      791.327055       0.001254
      791.358367       0.001260
      791.389680       0.001267
      791.420996       0.001274
      791.452315       0.001281
      791.483636       0.001288
      791.514960       0.001295
      791.546286       0.001303
      791.577614       0.001310
      791.608945       0.001317
      791.640279       0.001324
      791.671615       0.001331
      791.702953       0.001337
      791.734294       0.001343
      791.765637       0.001349
      791.796983       0.001354
      791.828332       0.001359
      791.859682       0.001363
      791.891036       0.001368
      791.922392       0.001372
      791.953750       0.001376
      791.985111       0.001379
      792.016474       0.001383
      792.047840       0.001387
      792.079208       0.001390
      792.110579       0.001394
      792.141952       0.001398
      792.173328       0.001402
      792.204706       0.001406
      792.236086       0.001410
      792.267469       0.001415
      792.298855       0.001419
      792.330243       0.001424
      792.361634       0.001428
      792.393027       0.001433
      792.424423       0.001438
      792.455821       0.001443
      792.487221       0.001448
      792.518624       0.001453
      792.550030       0.001457
      792.581438       0.001462
      792.612848       0.001466
      792.644261       0.001470
      792.675677       0.001474
      792.707095       0.001477
      792.738515       0.001480
      792.769938       0.001482
      792.801364       0.001484
      792.832792       0.001486
      792.864222       0.001487
      792.895655       0.001488
      792.927090       0.001489
      792.958528       0.001490
      792.989969       0.001491
      793.021412       0.001492
      793.052857       0.001492
      793.084305       0.001493
      793.115755       0.001494
      793.147208       0.001495
      793.178663       0.001496
      793.210121       0.001497
      793.241582       0.001498
      793.273045       0.001499
      793.304510       0.001500
      793.335978       0.001501
      793.367448       0.001502
      793.398921       0.001503
      793.430396       0.001504
      793.461874       0.001505
      793.493354       0.001505
      793.524837       0.001506
      793.556323       0.001507
      793.587810       0.001507
      793.619301       0.001508
      793.650794       0.001508
      793.682289       0.001509
      793.713787       0.001509
      793.745287       0.001509
      793.776790       0.001508
      793.808295       0.001508
      793.839803       0.001508
      793.871313       0.001507
      793.902826       0.001507
      793.934342       0.001506
      793.965859       0.001506
      793.997380       0.001505
      794.028903       0.001505
      794.060428       0.001504
      794.091956       0.001503
      794.123486       0.001502
      794.155019       0.001502
      794.186554       0.001501
      794.218092       0.001500
      794.249633       0.001499
      794.281176       0.001497
      794.312721       0.001496
      794.344269       0.001495
      794.375819       0.001493
      794.407372       0.001492
      794.438928       0.001491
      794.470485       0.001489
      794.502046       0.001488
      794.533609       0.001487
      794.565174       0.001486
      794.596742       0.001485
      794.628313       0.001485
      794.659886       0.001485
      794.691461       0.001484
      794.723039       0.001484
      794.754620       0.001485
      794.786203       0.001485
      794.817788       0.001486
      794.849376       0.001487
      794.880967       0.001488
      794.912560       0.001489
      794.944155       0.001491
      794.975753       0.001492
      795.007354       0.001494
      795.038957       0.001496
      795.070563       0.001498
      795.102171       0.001500
      795.133781       0.001501
      795.165394       0.001503
      795.197010       0.001505
      795.228628       0.001507
      795.260249       0.001508
      795.291872       0.001510
      795.323498       0.001511
      795.355126       0.001512
      795.386757       0.001514
      795.418390       0.001515
      795.450026       0.001517
      795.481664       0.001518
      795.513305       0.001520
      795.544948       0.001523
      795.576594       0.001525
      795.608243       0.001528
      795.639893       0.001532
      795.671547       0.001536
      795.703203       0.001540
      795.734861       0.001545
      795.766522       0.001550
      795.798186       0.001556
      795.829852       0.001563
      795.861520       0.001570
      795.893191       0.001578
      795.924865       0.001586
      795.956541       0.001596
      795.988219       0.001605
      796.019900       0.001615
      796.051584       0.001625
      796.083270       0.001636
      796.114959       0.001646
      796.146650       0.001657
      796.178344       0.001667
      796.210040       0.001678
      796.241739       0.001688
      796.273440       0.001698
      796.305144       0.001708
      796.336850       0.001718
      796.368559       0.001728
      796.400271       0.001738
      796.431985       0.001749
      796.463701       0.001759
      796.495420       0.001770
      796.527142       0.001781
      796.558866       0.001792
      796.590592       0.001803
      796.622321       0.001815
      796.654053       0.001828
      796.685787       0.001841
      796.717524       0.001855
      796.749263       0.001870
      796.781005       0.001886
      796.812749       0.001903
      796.844496       0.001921
      796.876245       0.001940
      796.907997       0.001960
      796.939751       0.001981
      796.971508       0.002003
      797.003268       0.002025
      797.035030       0.002047
      797.066794       0.002070
      797.098561       0.002093
      797.130331       0.002116
      797.162103       0.002139
      797.193878       0.002162
      797.225655       0.002184
      797.257434       0.002207
      797.289217       0.002230
      797.321001       0.002252
      797.352789       0.002275
      797.384579       0.002298
      797.416371       0.002320
      797.448166       0.002343
      797.479963       0.002366
      797.511763       0.002389
      797.543566       0.002413
      797.575371       0.002437
      797.607178       0.002461
      797.638989       0.002486
      797.670801       0.002512
      797.702616       0.002538
      797.734434       0.002566
      797.766254       0.002594
      797.798077       0.002624
      797.829903       0.002654
      797.861731       0.002686
      797.893561       0.002718
      797.925394       0.002752
      797.957229       0.002785
      797.989068       0.002820
      798.020908       0.002854
      798.052751       0.002889
      798.084597       0.002924
      798.116445       0.002959
      798.148296       0.002994
      798.180149       0.003028
      798.212005       0.003063
      798.243864       0.003098
      798.275724       0.003134
      798.307588       0.003169
      798.339454       0.003204
      798.371323       0.003240
      798.403194       0.003275
      798.435067       0.003311
      798.466943       0.003348
      798.498822       0.003384
      798.530704       0.003421
      798.562587       0.003458
      798.594474       0.003496
      798.626363       0.003534
      798.658254       0.003572
      798.690148       0.003611
      798.722045       0.003650
      798.753944       0.003690
      798.785846       0.003730
      798.817750       0.003771
      798.849656       0.003812
      798.881566       0.003853
      798.913478       0.003895
      798.945392       0.003937
      798.977309       0.003980
      799.009229       0.004023
      799.041151       0.004065
      799.073075       0.004109
      799.105002       0.004152
      799.136932       0.004196
      799.168864       0.004239
      799.200799       0.004283
      799.232737       0.004328
      799.264676       0.004372
      799.296619       0.004417
      799.328564       0.004462
      799.360512       0.004507
      799.392462       0.004552
      799.424414       0.004598
      799.456370       0.004644
      799.488327       0.004691
      799.520288       0.004737
      799.552251       0.004784
      799.584216       0.004831
      799.616184       0.004879
      799.648155       0.004927
      799.680128       0.004975
      799.712104       0.005023
      799.744082       0.005072
      799.776063       0.005121
      799.808046       0.005171
      799.840032       0.005220
      799.872020       0.005270
      799.904012       0.005321
      799.936005       0.005372
      799.968001       0.005423
      800.000000       0.005474
      800.032001       0.005525
      800.064005       0.005577
      800.096012       0.005630
      800.128020       0.005682
      800.160032       0.005735
      800.192046       0.005788
      800.224063       0.005841
      800.256082       0.005894
      800.288104       0.005948
      800.320128       0.006001
      800.352155       0.006055
      800.384184       0.006109
      800.416216       0.006164
      800.448251       0.006218
      800.480288       0.006273
      800.512328       0.006329
      800.544370       0.006385
      800.576415       0.006442
      800.608462       0.006499
      800.640512       0.006557
      800.672565       0.006617
      800.704620       0.006676
      800.736678       0.006737
      800.768738       0.006798
      800.800801       0.006861
      800.832866       0.006923
      800.864934       0.006987
      800.897005       0.007051
      800.929078       0.007115
      800.961153       0.007180
      800.993232       0.007246
      801.025312       0.007312
      801.057396       0.007378
      801.089482       0.007444
      801.121570       0.007511
      801.153661       0.007578
      801.185755       0.007645
      801.217851       0.007713
      801.249950       0.007780
      801.282051       0.007847
      801.314155       0.007914
      801.346262       0.007981
      801.378371       0.008049
      801.410482       0.008117
      801.442597       0.008185
      801.474713       0.008255
      801.506833       0.008326
      801.538955       0.008398
      801.571079       0.008471
      801.603206       0.008547
      801.635336       0.008624
      801.667468       0.008704
      801.699603       0.008785
      801.731741       0.008868
      801.763881       0.008953
      801.796023       0.009039
      801.828168       0.009127
      801.860316       0.009216
      801.892466       0.009306
      801.924619       0.009398
      801.956775       0.009491
      801.988933       0.009584
      802.021093       0.009679
      802.053256       0.009774
      802.085422       0.009870
      802.117590       0.009966
      802.149761       0.010062
      802.181935       0.010159
      802.214111       0.010256
      802.246290       0.010353
      802.278471       0.010450
      802.310655       0.010547
      802.342841       0.010644
      802.375030       0.010742
      802.407222       0.010840
      802.439416       0.010940
      802.471613       0.011040
      802.503812       0.011143
      802.536014       0.011247
      802.568218       0.011353
      802.600425       0.011462
      802.632635       0.011572
      802.664847       0.011685
      802.697062       0.011801
      802.729280       0.011918
      802.761500       0.012037
      802.793722       0.012159
      802.825947       0.012283
      802.858175       0.012408
      802.890405       0.012536
      802.922638       0.012665
      802.954874       0.012796
      802.987112       0.012928
      803.019353       0.013062
      803.051596       0.013197
      803.083842       0.013333
      803.116090       0.013469
      803.148341       0.013606
      803.180595       0.013744
      803.212851       0.013881
      803.245110       0.014018
      803.277372       0.014155
      803.309636       0.014293
      803.341902       0.014431
      803.374172       0.014570
      803.406443       0.014710
      803.438718       0.014851
      803.470995       0.014994
      803.503274       0.015138
      803.535556       0.015284
      803.567841       0.015433
      803.600129       0.015583
      803.632419       0.015736
      803.664711       0.015892
      803.697006       0.016049
      803.729304       0.016209
      803.761604       0.016372
      803.793907       0.016537
      803.826213       0.016705
      803.858521       0.016875
      803.890832       0.017047
      803.923145       0.017223
      803.955461       0.017400
      803.987779       0.017579
      804.020101       0.017759
      804.052424       0.017941
      804.084751       0.018124
      804.117079       0.018308
      804.149411       0.018493
      804.181745       0.018678
      804.214082       0.018862
      804.246421       0.019047
      804.278763       0.019232
      804.311108       0.019418
      804.343455       0.019604
      804.375804       0.019791
      804.408157       0.019979
      804.440512       0.020168
      804.472869       0.020357
      804.505229       0.020549
      804.537592       0.020741
      804.569957       0.020935
      804.602325       0.021131
      804.634696       0.021328
      804.667069       0.021527
      804.699445       0.021728
      804.731823       0.021931
      804.764204       0.022136
      804.796588       0.022343
      804.828974       0.022552
      804.861363       0.022762
      804.893754       0.022975
      804.926148       0.023190
      804.958545       0.023407
      804.990944       0.023624
      805.023346       0.023843
      805.055750       0.024063
      805.088157       0.024284
      805.120567       0.024505
      805.152979       0.024727
      805.185394       0.024948
      805.217811       0.025170
      805.250232       0.025393
      805.282654       0.025616
      805.315080       0.025839
      805.347507       0.026063
      805.379938       0.026288
      805.412371       0.026514
      805.444807       0.026740
      805.477245       0.026968
      805.509686       0.027197
      805.542130       0.027428
      805.574576       0.027660
      805.607025       0.027893
      805.639476       0.028129
      805.671930       0.028366
      805.704387       0.028606
      805.736846       0.028848
      805.769308       0.029092
      805.801773       0.029339
      805.834240       0.029589
      805.866710       0.029841
      805.899182       0.030095
      805.931657       0.030352
      805.964135       0.030610
      805.996615       0.030870
      806.029098       0.031131
      806.061583       0.031393
      806.094071       0.031655
      806.126562       0.031917
      806.159055       0.032180
      806.191551       0.032443
      806.224050       0.032705
      806.256551       0.032968
      806.289055       0.033232
      806.321561       0.033496
      806.354070       0.033760
      806.386582       0.034025
      806.419096       0.034291
      806.451613       0.034557
      806.484132       0.034825
      806.516655       0.035094
      806.549179       0.035364
      806.581707       0.035636
      806.614237       0.035910
      806.646769       0.036187
      806.679305       0.036466
      806.711843       0.036749
      806.744383       0.037034
      806.776926       0.037324
      806.809472       0.037617
      806.842020       0.037914
      806.874571       0.038213
      806.907125       0.038516
      806.939681       0.038820
      806.972240       0.039127
      807.004802       0.039435
      807.037366       0.039744
      807.069933       0.040054
      807.102502       0.040364
      807.135074       0.040673
      807.167649       0.040982
      807.200226       0.041291
      807.232806       0.041601
      807.265388       0.041909
      807.297974       0.042219
      807.330561       0.042528
      807.363152       0.042837
      807.395745       0.043147
      807.428341       0.043457
      807.460939       0.043767
      807.493540       0.044079
      807.526144       0.044393
      807.558750       0.044710
      807.591359       0.045030
      807.623970       0.045355
      807.656584       0.045685
      807.689201       0.046021
      807.721821       0.046364
      807.754443       0.046715
      807.787067       0.047074
      807.819695       0.047441
      807.852325       0.047815
      807.884957       0.048194
      807.917592       0.048578
      807.950230       0.048966
      807.982871       0.049356
      808.015514       0.049749
      808.048160       0.050142
      808.080808       0.050535
      808.113459       0.050926
      808.146113       0.051316
      808.178769       0.051705
      808.211428       0.052094
      808.244090       0.052481
      808.276754       0.052867
      808.309421       0.053252
      808.342090       0.053637
      808.374763       0.054021
      808.407437       0.054405
      808.440115       0.054788
      808.472795       0.055172
      808.505478       0.055558
      808.538163       0.055949
      808.570851       0.056344
      808.603542       0.056745
      808.636235       0.057155
      808.668931       0.057573
      808.701630       0.058002
      808.734331       0.058444
      808.767035       0.058898
      808.799741       0.059365
      808.832450       0.059841
      808.865162       0.060327
      808.897877       0.060820
      808.930594       0.061319
      808.963314       0.061822
      808.996036       0.062328
      809.028761       0.062834
      809.061489       0.063340
      809.094219       0.063844
      809.126952       0.064346
      809.159688       0.064846
      809.192426       0.065343
      809.225167       0.065839
      809.257910       0.066332
      809.290657       0.066823
      809.323406       0.067312
      809.356157       0.067798
      809.388911       0.068283
      809.421668       0.068766
      809.454428       0.069249
      809.487190       0.069734
      809.519955       0.070224
      809.552722       0.070720
      809.585492       0.071226
      809.618265       0.071744
      809.651040       0.072275
      809.683818       0.072822
      809.716599       0.073389
      809.749383       0.073974
      809.782169       0.074579
      809.814957       0.075199
      809.847749       0.075833
      809.880543       0.076478
      809.913339       0.077132
      809.946139       0.077792
      809.978941       0.078456
      810.011745       0.079121
      810.044552       0.079785
      810.077362       0.080446
      810.110175       0.081103
      810.142990       0.081756
      810.175808       0.082406
      810.208629       0.083051
      810.241452       0.083694
      810.274278       0.084332
      810.307106       0.084967
      810.339938       0.085597
      810.372771       0.086224
      810.405608       0.086848
      810.438447       0.087471
      810.471289       0.088096
      810.504134       0.088726
      810.536981       0.089365
      810.569831       0.090014
      810.602683       0.090678
      810.635538       0.091359
      810.668396       0.092060
      810.701257       0.092784
      810.734120       0.093534
      810.766986       0.094307
      810.799854       0.095099
      810.832725       0.095910
      810.865599       0.096734
      810.898476       0.097569
      810.931355       0.098411
      810.964236       0.099259
      810.997121       0.100108
      811.030008       0.100956
      811.062898       0.101799
      811.095790       0.102637
      811.128686       0.103471
      811.161583       0.104299
      811.194484       0.105122
      811.227387       0.105941
      811.260293       0.106753
      811.293201       0.107561
      811.326113       0.108362
      811.359026       0.109158
      811.391943       0.109948
      811.424862       0.110738
      811.457784       0.111527
      811.490708       0.112324
      811.523636       0.113129
      811.556565       0.113947
      811.589498       0.114782
      811.622433       0.115639
      811.655371       0.116519
      811.688312       0.117428
      811.721255       0.118367
      811.754201       0.119336
      811.787149       0.120329
      811.820101       0.121343
      811.853055       0.122373
      811.886011       0.123418
      811.918970       0.124471
      811.951932       0.125531
      811.984897       0.126591
      812.017864       0.127650
      812.050834       0.128703
      812.083807       0.129750
      812.116782       0.130791
      812.149760       0.131826
      812.182741       0.132853
      812.215724       0.133874
      812.248711       0.134888
      812.281699       0.135895
      812.314691       0.136894
      812.347685       0.137887
      812.380682       0.138872
      812.413681       0.139854
      812.446683       0.140837
      812.479688       0.141827
      812.512696       0.142825
      812.545706       0.143840
      812.578719       0.144872
      812.611734       0.145929
      812.644752       0.147014
      812.677773       0.148131
      812.710797       0.149283
      812.743823       0.150469
      812.776852       0.151682
      812.809884       0.152920
      812.842918       0.154176
      812.875955       0.155448
      812.908995       0.156730
      812.942037       0.158019
      812.975082       0.159309
      813.008130       0.160597
      813.041181       0.161877
      813.074234       0.163151
      813.107290       0.164417
      813.140348       0.165676
      813.173409       0.166926
      813.206473       0.168169
      813.239540       0.169403
      813.272609       0.170629
      813.305681       0.171847
      813.338756       0.173056
      813.371833       0.174257
      813.404913       0.175454
      813.437996       0.176652
      813.471081       0.177857
      813.504169       0.179073
      813.537260       0.180305
      813.570353       0.181558
      813.603450       0.182839
      813.636549       0.184150
      813.669650       0.185499
      813.702754       0.186886
      813.735861       0.188311
      813.768971       0.189768
      813.802083       0.191251
      813.835198       0.192756
      813.868316       0.194279
      813.901437       0.195813
      813.934560       0.197355
      813.967685       0.198898
      814.000814       0.200439
      814.033945       0.201972
      814.067079       0.203498
      814.100216       0.205014
      814.133355       0.206524
      814.166497       0.208023
      814.199642       0.209514
      814.232789       0.210996
      814.265939       0.212468
      814.299092       0.213930
      814.332248       0.215383
      814.365406       0.216826
      814.398567       0.218266
      814.431730       0.219705
      814.464897       0.221152
      814.498066       0.222611
      814.531237       0.224089
      814.564412       0.225589
      814.597589       0.227120
      814.630769       0.228685
      814.663951       0.230292
      814.697136       0.231943
      814.730324       0.233635
      814.763515       0.235362
      814.796708       0.237119
      814.829904       0.238900
      814.863103       0.240701
      814.896304       0.242515
      814.929509       0.244337
      814.962715       0.246160
      814.995925       0.247981
      815.029137       0.249794
      815.062352       0.251598
      815.095570       0.253393
      815.128790       0.255178
      815.162013       0.256954
      815.195239       0.258720
      815.228468       0.260476
      815.261699       0.262222
      815.294933       0.263956
      815.328170       0.265681
      815.361409       0.267395
      815.394651       0.269105
      815.427896       0.270815
      815.461143       0.272533
      815.494393       0.274264
      815.527646       0.276014
      815.560902       0.277789
      815.594160       0.279597
      815.627421       0.281441
      815.660685       0.283329
      815.693952       0.285264
      815.727221       0.287244
      815.760493       0.289260
      815.793767       0.291309
      815.827045       0.293383
      815.860325       0.295478
      815.893607       0.297586
      815.926893       0.299703
      815.960181       0.301821
      815.993472       0.303936
      816.026766       0.306042
      816.060062       0.308138
      816.093361       0.310224
      816.126663       0.312300
      816.159967       0.314366
      816.193275       0.316422
      816.226584       0.318468
      816.259897       0.320503
      816.293213       0.322528
      816.326531       0.324543
      816.359851       0.326548
      816.393175       0.328548
      816.426501       0.330549
      816.459830       0.332558
      816.493162       0.334579
      816.526496       0.336620
      816.559833       0.338684
      816.593173       0.340780
      816.626516       0.342912
      816.659861       0.345087
      816.693209       0.347307
      816.726560       0.349570
      816.759913       0.351870
      816.793270       0.354200
      816.826629       0.356554
      816.859990       0.358928
      816.893355       0.361315
      816.926722       0.363709
      816.960091       0.366104
      816.993464       0.368494
      817.026839       0.370875
      817.060217       0.373246
      817.093598       0.375607
      817.126982       0.377958
      817.160368       0.380299
      817.193757       0.382632
      817.227148       0.384954
      817.260543       0.387269
      817.293940       0.389574
      817.327340       0.391871
      817.360742       0.394161
      817.394147       0.396447
      817.427555       0.398734
      817.460966       0.401028
      817.494380       0.403332
      817.527796       0.405653
      817.561215       0.407994
      817.594637       0.410360
      817.628061       0.412756
      817.661488       0.415187
      817.694918       0.417656
      817.728351       0.420159
      817.761786       0.422693
      817.795224       0.425251
      817.828665       0.427816
      817.862108       0.430394
      817.895555       0.432982
      817.929004       0.435575
      817.962456       0.438168
      817.995910       0.440755
      818.029367       0.443333
      818.062827       0.445902
      818.096290       0.448462
      818.129755       0.451014
      818.163224       0.453558
      818.196694       0.456095
      818.230168       0.458625
      818.263645       0.461150
      818.297124       0.463669
      818.330606       0.466184
      818.364090       0.468694
      818.397578       0.471203
      818.431068       0.473714
      818.464560       0.476229
      818.498056       0.478751
      818.531554       0.481284
      818.565055       0.483829
      818.598559       0.486389
      818.632066       0.488968
      818.665575       0.491569
      818.699087       0.494192
      818.732602       0.496837
      818.766119       0.499499
      818.799640       0.502176
      818.833163       0.504865
      818.866689       0.507563
      818.900217       0.510265
      818.933748       0.512970
      818.967282       0.515674
      819.000819       0.518374
      819.034358       0.521068
      819.067901       0.523756
      819.101446       0.526438
      819.134993       0.529115
      819.168544       0.531787
      819.202097       0.534456
      819.235653       0.537122
      819.269212       0.539785
      819.302773       0.542446
      819.336338       0.545107
      819.369905       0.547767
      819.403474       0.550427
      819.437047       0.553088
      819.470622       0.555751
      819.504200       0.558415
      819.537781       0.561083
      819.571364       0.563754
      819.604950       0.566429
      819.638539       0.569109
      819.672131       0.571794
      819.705726       0.574486
      819.739323       0.577182
      819.772923       0.579882
      819.806526       0.582586
      819.840131       0.585293
      819.873739       0.588001
      819.907350       0.590709
      819.940964       0.593418
      819.974581       0.596125
      820.008200       0.598831
      820.041822       0.601534
      820.075447       0.604235
      820.109075       0.606934
      820.142705       0.609631
      820.176338       0.612327
      820.209974       0.615024
      820.243612       0.617720
      820.277254       0.620416
      820.310898       0.623114
      820.344545       0.625813
      820.378194       0.628514
      820.411847       0.631215
      820.445502       0.633916
      820.479160       0.636615
      820.512821       0.639310
      820.546484       0.642000
      820.580150       0.644684
      820.613819       0.647359
      820.647491       0.650026
      820.681165       0.652682
      820.714843       0.655327
      820.748523       0.657961
      820.782205       0.660586
      820.815891       0.663204
      820.849579       0.665815
      820.883270       0.668421
      820.916964       0.671023
      820.950661       0.673624
      820.984360       0.676223
      821.018062       0.678823
      821.051767       0.681425
      821.085475       0.684028
      821.119185       0.686634
      821.152899       0.689241
      821.186615       0.691852
      821.220333       0.694464
      821.254055       0.697078
      821.287779       0.699694
      821.321506       0.702312
      821.355236       0.704933
      821.388969       0.707556
      821.422704       0.710178
      821.456442       0.712796
      821.490183       0.715407
      821.523927       0.718008
      821.557673       0.720596
      821.591423       0.723167
      821.625175       0.725719
      821.658929       0.728249
      821.692687       0.730753
      821.726447       0.733229
      821.760210       0.735681
      821.793976       0.738110
      821.827745       0.740522
      821.861516       0.742920
      821.895291       0.745306
      821.929068       0.747686
      821.962847       0.750062
      821.996630       0.752438
      822.030415       0.754818
      822.064203       0.757204
      822.097994       0.759596
      822.131788       0.761994
      822.165584       0.764396
      822.199383       0.766804
      822.233185       0.769214
      822.266990       0.771628
      822.300798       0.774043
      822.334608       0.776461
      822.368421       0.778878
      822.402237       0.781295
      822.436056       0.783707
      822.469877       0.786111
      822.503701       0.788502
      822.537528       0.790877
      822.571358       0.793230
      822.605191       0.795558
      822.639026       0.797857
      822.672864       0.800123
      822.706705       0.802351
      822.740549       0.804539
      822.774395       0.806690
      822.808245       0.808810
      822.842097       0.810904
      822.875951       0.812979
      822.909809       0.815038
      822.943670       0.817089
      822.977533       0.819135
      823.011399       0.821182
      823.045267       0.823236
      823.079139       0.825301
      823.113013       0.827376
      823.146891       0.829460
      823.180770       0.831550
      823.214653       0.833646
      823.248539       0.835744
      823.282427       0.837845
      823.316318       0.839945
      823.350212       0.842044
      823.384109       0.844139
      823.418008       0.846228
      823.451910       0.848307
      823.485815       0.850372
      823.519723       0.852419
      823.553634       0.854444
      823.587547       0.856441
      823.621464       0.858408
      823.655383       0.860338
      823.689304       0.862229
      823.723229       0.864075
      823.757156       0.865876
      823.791087       0.867633
      823.825020       0.869356
      823.858955       0.871048
      823.892894       0.872719
      823.926835       0.874373
      823.960779       0.876017
      823.994726       0.877657
      824.028676       0.879301
      824.062629       0.880953
      824.096584       0.882620
      824.130542       0.884299
      824.164503       0.885989
      824.198467       0.887686
      824.232434       0.889387
      824.266403       0.891090
      824.300375       0.892793
      824.334350       0.894491
      824.368328       0.896183
      824.402308       0.897865
      824.436292       0.899536
      824.470278       0.901190
      824.504267       0.902825
      824.538259       0.904438
      824.572253       0.906026
      824.606251       0.907583
      824.640251       0.909109
      824.674254       0.910597
      824.708259       0.912047
      824.742268       0.913453
      824.776279       0.914815
      824.810294       0.916137
      824.844311       0.917424
      824.878330       0.918684
      824.912353       0.919923
      824.946378       0.921147
      824.980407       0.922363
      825.014438       0.923576
      825.048472       0.924794
      825.082508       0.926021
      825.116548       0.927264
      825.150590       0.928520
      825.184635       0.929786
      825.218683       0.931058
      825.252734       0.932334
      825.286787       0.933608
      825.320843       0.934879
      825.354903       0.936142
      825.388965       0.937394
      825.423029       0.938632
      825.457097       0.939853
      825.491167       0.941054
      825.525240       0.942233
      825.559316       0.943388
      825.593395       0.944519
      825.627477       0.945622
      825.661561       0.946696
      825.695649       0.947738
      825.729739       0.948747
      825.763832       0.949721
      825.797927       0.950660
      825.832026       0.951566
      825.866127       0.952446
      825.900231       0.953304
      825.934338       0.954147
      825.968448       0.954978
      826.002561       0.955804
      826.036676       0.956628
      826.070794       0.957457
      826.104915       0.958296
      826.139039       0.959149
      826.173166       0.960012
      826.207295       0.960884
      826.241428       0.961760
      826.275563       0.962637
      826.309701       0.963512
      826.343842       0.964380
      826.377985       0.965239
      826.412132       0.966084
      826.446281       0.966913
      826.480433       0.967722
      826.514588       0.968511
      826.548746       0.969279
      826.582906       0.970025
      826.617070       0.970749
      826.651236       0.971451
      826.685405       0.972131
      826.719577       0.972786
      826.753751       0.973419
      826.787929       0.974028
      826.822109       0.974612
      826.856292       0.975175
      826.890478       0.975722
      826.924667       0.976254
      826.958859       0.976776
      826.993053       0.977292
      827.027251       0.977805
      827.061451       0.978318
      827.095654       0.978836
      827.129859       0.979361
      827.164068       0.979897
      827.198279       0.980442
      827.232494       0.980991
      827.266711       0.981542
      827.300931       0.982094
      827.335153       0.982641
      827.369379       0.983182
      827.403607       0.983712
      827.437839       0.984230
      827.472073       0.984731
      827.506310       0.985215
      827.540549       0.985679
      827.574792       0.986126
      827.609037       0.986555
      827.643286       0.986967
      827.677537       0.987363
      827.711791       0.987744
      827.746048       0.988109
      827.780307       0.988460
      827.814570       0.988796
      827.848835       0.989119
      827.883103       0.989431
      827.917374       0.989734
      827.951648       0.990029
      827.985924       0.990320
      828.020204       0.990607
      828.054486       0.990895
      828.088771       0.991183
      828.123059       0.991476
      828.157350       0.991774
      828.191644       0.992079
      828.225940       0.992390
      828.260239       0.992704
      828.294542       0.993019
      828.328847       0.993331
      828.363154       0.993640
      828.397465       0.993940
      828.431779       0.994232
      828.466095       0.994512
      828.500414       0.994777
      828.534736       0.995027
      828.569061       0.995260
      828.603389       0.995479
      828.637720       0.995684
      828.672053       0.995877
      828.706389       0.996058
      828.740728       0.996228
      828.775070       0.996388
      828.809415       0.996541
      828.843763       0.996686
      828.878113       0.996825
      828.912467       0.996959
      828.946823       0.997088
      828.981182       0.997215
      829.015544       0.997340
      829.049909       0.997465
      829.084276       0.997590
      829.118647       0.997717
      829.153020       0.997847
      829.187396       0.997981
      829.221775       0.998120
      829.256157       0.998263
      829.290542       0.998407
      829.324930       0.998550
      829.359320       0.998691
      829.393713       0.998828
      829.428109       0.998958
      829.462508       0.999079
      829.496910       0.999190
      829.531315       0.999289
      829.565722       0.999375
      829.600133       0.999447
      829.634546       0.999507
      829.668962       0.999557
      829.703381       0.999598
      829.737803       0.999630
      829.772228       0.999655
      829.806655       0.999675
      829.841085       0.999690
      829.875519       0.999701
      829.909955       0.999711
      829.944394       0.999719
      829.978836       0.999726
      830.013280       0.999732
      830.047728       0.999740
      830.082178       0.999748
      830.116631       0.999761
      830.151087       0.999778
      830.185546       0.999799
      830.220008       0.999822
      830.254473       0.999849
      830.288941       0.999878
      830.323411       0.999907
      830.357884       0.999934
      830.392360       0.999960
      830.426839       0.999980
      830.461321       0.999994
      830.495806       1.000000
      830.530294       0.999996
      830.564784       0.999981
      830.599277       0.999954
      830.633774       0.999914
      830.668273       0.999865
      830.702775       0.999806
      830.737279       0.999739
      830.771787       0.999666
      830.806298       0.999588
      830.840811       0.999507
      830.875327       0.999423
      830.909846       0.999338
      830.944368       0.999254
      830.978893       0.999170
      831.013421       0.999087
      831.047951       0.999005
      831.082485       0.998924
      831.117021       0.998844
      831.151560       0.998766
      831.186103       0.998691
      831.220648       0.998616
      831.255195       0.998544
      831.289746       0.998474
      831.324300       0.998406
      831.358856       0.998337
      831.393415       0.998267
      831.427978       0.998194
      831.462543       0.998117
      831.497111       0.998034
      831.531681       0.997945
      831.566255       0.997848
      831.600832       0.997741
      831.635411       0.997624
      831.669993       0.997498
      831.704579       0.997364
      831.739167       0.997222
      831.773758       0.997075
      831.808351       0.996924
      831.842948       0.996769
      831.877548       0.996613
      831.912150       0.996456
      831.946755       0.996299
      831.981364       0.996144
      832.015975       0.995991
      832.050589       0.995840
      832.085206       0.995690
      832.119825       0.995541
      832.154448       0.995394
      832.189073       0.995248
      832.223702       0.995104
      832.258333       0.994960
      832.292967       0.994817
      832.327604       0.994675
      832.362244       0.994533
      832.396887       0.994390
      832.431533       0.994245
      832.466181       0.994096
      832.500833       0.993943
      832.535487       0.993785
      832.570144       0.993621
      832.604804       0.993449
      832.639467       0.993269
      832.674133       0.993080
      832.708802       0.992884
      832.743473       0.992679
      832.778148       0.992470
      832.812825       0.992255
      832.847506       0.992036
      832.882189       0.991816
      832.916875       0.991594
      832.951564       0.991372
      832.986256       0.991152
      833.020950       0.990932
      833.055648       0.990715
      833.090349       0.990501
      833.125052       0.990287
      833.159758       0.990074
      833.194468       0.989862
      833.229180       0.989649
      833.263895       0.989437
      833.298613       0.989225
      833.333333       0.989013
      833.368057       0.988801
      833.402784       0.988589
      833.437513       0.988374
      833.472245       0.988157
      833.506981       0.987938
      833.541719       0.987715
      833.576460       0.987489
      833.611204       0.987258
      833.645951       0.987023
      833.680700       0.986784
      833.715453       0.986538
      833.750208       0.986288
      833.784967       0.986033
      833.819728       0.985776
      833.854492       0.985516
      833.889260       0.985254
      833.924030       0.984990
      833.958802       0.984726
      833.993578       0.984461
      834.028357       0.984198
      834.063139       0.983936
      834.097923       0.983675
      834.132711       0.983415
      834.167501       0.983155
      834.202294       0.982896
      834.237090       0.982636
      834.271889       0.982376
      834.306691       0.982115
      834.341496       0.981853
      834.376304       0.981589
      834.411114       0.981323
      834.445928       0.981055
      834.480744       0.980785
      834.515564       0.980512
      834.550386       0.980236
      834.585211       0.979957
      834.620039       0.979674
      834.654870       0.979388
      834.689704       0.979097
      834.724541       0.978802
      834.759381       0.978503
      834.794223       0.978200
      834.829069       0.977893
      834.863917       0.977584
      834.898769       0.977272
      834.933623       0.976958
      834.968480       0.976643
      835.003340       0.976329
      835.038203       0.976012
      835.073069       0.975697
      835.107938       0.975383
      835.142809       0.975069
      835.177684       0.974757
      835.212562       0.974445
      835.247442       0.974133
      835.282325       0.973821
      835.317212       0.973509
      835.352101       0.973197
      835.386993       0.972883
      835.421888       0.972569
      835.456786       0.972256
      835.491687       0.971942
      835.526591       0.971626
      835.561497       0.971310
      835.596407       0.970993
      835.631319       0.970676
      835.666235       0.970358
      835.701153       0.970040
      835.736075       0.969722
      835.770999       0.969403
      835.805926       0.969084
      835.840856       0.968765
      835.875789       0.968445
      835.910725       0.968125
      835.945664       0.967804
      835.980605       0.967482
      836.015550       0.967162
      836.050497       0.966840
      836.085448       0.966518
      836.120401       0.966195
      836.155358       0.965872
      836.190317       0.965549
      836.225279       0.965225
      836.260244       0.964901
      836.295212       0.964578
      836.330183       0.964255
      836.365157       0.963932
      836.400134       0.963610
      836.435114       0.963288
      836.470096       0.962969
      836.505082       0.962649
      836.540070       0.962331
      836.575062       0.962014
      836.610056       0.961699
      836.645053       0.961384
      836.680054       0.961071
      836.715057       0.960758
      836.750063       0.960446
      836.785072       0.960136
      836.820084       0.959827
      836.855099       0.959518
      836.890116       0.959210
      836.925137       0.958902
      836.960161       0.958594
      836.995187       0.958286
      837.030217       0.957977
      837.065249       0.957667
      837.100285       0.957356
      837.135323       0.957043
      837.170364       0.956729
      837.205408       0.956412
      837.240455       0.956094
      837.275506       0.955775
      837.310558       0.955458
      837.345614       0.955141
      837.380673       0.954828
      837.415735       0.954518
      837.450800       0.954212
      837.485867       0.953912
      837.520938       0.953618
      837.556012       0.953331
      837.591088       0.953052
      837.626167       0.952780
      837.661250       0.952515
      837.696335       0.952256
      837.731423       0.952003
      837.766514       0.951757
      837.801609       0.951516
      837.836706       0.951281
      837.871806       0.951052
      837.906909       0.950827
      837.942014       0.950606
      837.977123       0.950384
      838.012235       0.950160
      838.047350       0.949931
      838.082467       0.949695
      838.117588       0.949449
      838.152711       0.949190
      838.187838       0.948917
      838.222967       0.948625
      838.258100       0.948316
      838.293235       0.947995
      838.328373       0.947674
      838.363514       0.947362
      838.398659       0.947067
      838.433806       0.946800
      838.468956       0.946569
      838.504109       0.946385
      838.539265       0.946257
      838.574423       0.946195
      838.609585       0.946204
      838.644750       0.946278
      838.679918       0.946408
      838.715088       0.946583
      838.750262       0.946795
      838.785439       0.947066
      838.820618       0.947362
      838.855801       0.947665
      838.890986       0.947965
      838.926174       0.948252
      838.961366       0.948517
      838.996560       0.948763
      839.031757       0.948993
      839.066958       0.949209
      839.102161       0.949416
      839.137367       0.949615
      839.172576       0.949811
      839.207788       0.950006
      839.243003       0.950205
      839.278221       0.950409
      839.313442       0.950622
      839.348665       0.950842
      839.383892       0.951070
      839.419122       0.951303
      839.454355       0.951540
      839.489590       0.951781
      839.524829       0.952025
      839.560071       0.952269
      839.595315       0.952513
      839.630563       0.952756
      839.665813       0.952997
      839.701066       0.953235
      839.736323       0.953472
      839.771582       0.953708
      839.806844       0.953944
      839.842110       0.954181
      839.877378       0.954418
      839.912649       0.954657
      839.947923       0.954898
      839.983200       0.955141
      840.018480       0.955387
      840.053763       0.955634
      840.089049       0.955882
      840.124338       0.956129
      840.159630       0.956372
      840.194925       0.956611
      840.230223       0.956844
      840.265524       0.957070
      840.300828       0.957287
      840.336134       0.957494
      840.371444       0.957690
      840.406757       0.957875
      840.442073       0.958052
      840.477391       0.958221
      840.512713       0.958386
      840.548037       0.958547
      840.583365       0.958706
      840.618695       0.958863
      840.654029       0.959022
      840.689365       0.959183
      840.724705       0.959348
      840.760047       0.959515
      840.795392       0.959686
      840.830741       0.959859
      840.866092       0.960032
      840.901446       0.960206
      840.936804       0.960381
      840.972164       0.960554
      841.007527       0.960727
      841.042893       0.960897
      841.078262       0.961065
      841.113634       0.961227
      841.149010       0.961384
      841.184388       0.961531
      841.219769       0.961669
      841.255153       0.961794
      841.290540       0.961906
      841.325930       0.962001
      841.361323       0.962080
      841.396719       0.962138
      841.432117       0.962176
      841.467519       0.962195
      841.502924       0.962201
      841.538332       0.962193
      841.573743       0.962178
      841.609157       0.962157
      841.644573       0.962134
      841.679993       0.962112
      841.715416       0.962095
      841.750842       0.962086
      841.786270       0.962086
      841.821702       0.962094
      841.857137       0.962107
      841.892575       0.962120
      841.928015       0.962134
      841.963459       0.962142
      841.998905       0.962143
      842.034355       0.962134
      842.069808       0.962111
      842.105263       0.962071
      842.140722       0.962012
      842.176183       0.961933
      842.211648       0.961833
      842.247115       0.961712
      842.282586       0.961570
      842.318059       0.961406
      842.353536       0.961221
      842.389015       0.961012
      842.424498       0.960781
      842.459983       0.960526
      842.495472       0.960249
      842.530963       0.959951
      842.566457       0.959639
      842.601955       0.959316
      842.637455       0.958987
      842.672959       0.958655
      842.708465       0.958326
      842.743974       0.958002
      842.779487       0.957690
      842.815002       0.957392
      842.850520       0.957112
      842.886042       0.956844
      842.921566       0.956581
      842.957093       0.956317
      842.992624       0.956044
      843.028157       0.955755
      843.063693       0.955445
      843.099233       0.955104
      843.134775       0.954727
      843.170320       0.954307
      843.205869       0.953838
      843.241420       0.953322
      843.276974       0.952763
      843.312532       0.952165
      843.348092       0.951530
      843.383655       0.950863
      843.419222       0.950169
      843.454791       0.949449
      843.490363       0.948708
      843.525938       0.947949
      843.561517       0.947178
      843.597098       0.946395
      843.632682       0.945609
      843.668270       0.944820
      843.703860       0.944036
      843.739453       0.943257
      843.775050       0.942491
      843.810649       0.941740
      843.846251       0.941009
      843.881857       0.940302
      843.917465       0.939621
      843.953076       0.938955
      843.988691       0.938293
      844.024308       0.937622
      844.059928       0.936929
      844.095552       0.936202
      844.131178       0.935429
      844.166807       0.934597
      844.202440       0.933694
      844.238075       0.932707
      844.273714       0.931628
      844.309355       0.930465
      844.344999       0.929228
      844.380647       0.927929
      844.416297       0.926581
      844.451951       0.925193
      844.487607       0.923780
      844.523267       0.922350
      844.558929       0.920917
      844.594595       0.919491
      844.630263       0.918082
      844.665935       0.916690
      844.701609       0.915315
      844.737287       0.913952
      844.772967       0.912602
      844.808651       0.911262
      844.844337       0.909930
      844.880027       0.908604
      844.915720       0.907283
      844.951415       0.905964
      844.987114       0.904645
      845.022816       0.903318
      845.058520       0.901973
      845.094228       0.900601
      845.129939       0.899193
      845.165652       0.897739
      845.201369       0.896231
      845.237089       0.894659
      845.272812       0.893014
      845.308538       0.891286
      845.344266       0.889471
      845.379998       0.887576
      845.415733       0.885615
      845.451471       0.883598
      845.487212       0.881540
      845.522956       0.879452
      845.558703       0.877347
      845.594453       0.875236
      845.630206       0.873132
      845.665962       0.871048
      845.701721       0.868993
      845.737483       0.866963
      845.773248       0.864952
      845.809016       0.862952
      845.844787       0.860958
      845.880562       0.858962
      845.916339       0.856960
      845.952119       0.854942
      845.987902       0.852903
      846.023689       0.850835
      846.059478       0.848734
      846.095270       0.846596
      846.131066       0.844419
      846.166864       0.842202
      846.202666       0.839942
      846.238470       0.837637
      846.274277       0.835286
      846.310088       0.832886
      846.345902       0.830435
      846.381718       0.827932
      846.417538       0.825376
      846.453360       0.822774
      846.489186       0.820133
      846.525015       0.817462
      846.560847       0.814769
      846.596681       0.812062
      846.632519       0.809349
      846.668360       0.806638
      846.704204       0.803938
      846.740051       0.801256
      846.775901       0.798598
      846.811754       0.795958
      846.847610       0.793330
      846.883469       0.790705
      846.919331       0.788075
      846.955196       0.785431
      846.991064       0.782768
      847.026935       0.780075
      847.062810       0.777346
      847.098687       0.774571
      847.134567       0.771747
      847.170451       0.768873
      847.206337       0.765955
      847.242227       0.762994
      847.278119       0.759996
      847.314015       0.756964
      847.349913       0.753901
      847.385815       0.750811
      847.421719       0.747699
      847.457627       0.744567
      847.493538       0.741420
      847.529452       0.738260
      847.565368       0.735091
      847.601288       0.731914
      847.637211       0.728733
      847.673137       0.725551
      847.709066       0.722371
      847.744998       0.719195
      847.780933       0.716027
      847.816872       0.712869
      847.852813       0.709723
      847.888757       0.706585
      847.924704       0.703450
      847.960655       0.700312
      847.996608       0.697166
      848.032564       0.694006
      848.068524       0.690827
      848.104486       0.687624
      848.140452       0.684391
      848.176421       0.681122
      848.212392       0.677815
      848.248367       0.674472
      848.284345       0.671098
      848.320326       0.667698
      848.356310       0.664276
      848.392297       0.660837
      848.428287       0.657386
      848.464280       0.653927
      848.500276       0.650466
      848.536275       0.647006
      848.572277       0.643553
      848.608282       0.640105
      848.644291       0.636662
      848.680302       0.633223
      848.716317       0.629787
      848.752334       0.626352
      848.788355       0.622919
      848.824378       0.619485
      848.860405       0.616049
      848.896435       0.612612
      848.932467       0.609171
      848.968503       0.605728
      849.004542       0.602283
      849.040584       0.598836
      849.076629       0.595390
      849.112677       0.591942
      849.148728       0.588495
      849.184783       0.585049
      849.220840       0.581606
      849.256900       0.578165
      849.292964       0.574726
      849.329030       0.571290
      849.365100       0.567855
      849.401172       0.564421
      849.437248       0.560986
      849.473327       0.557550
      849.509408       0.554113
      849.545493       0.550673
      849.581581       0.547230
      849.617672       0.543781
      849.653766       0.540328
      849.689863       0.536872
      849.725963       0.533413
      849.762067       0.529955
      849.798173       0.526497
      849.834282       0.523043
      849.870395       0.519593
      849.906510       0.516149
      849.942629       0.512714
      849.978751       0.509288
      850.014875       0.505874
      850.051003       0.502472
      850.087134       0.499082
      850.123268       0.495706
      850.159405       0.492345
      850.195545       0.489001
      850.231688       0.485673
      850.267834       0.482364
      850.303984       0.479073
      850.340136       0.475802
      850.376292       0.472550
      850.412450       0.469316
      850.448612       0.466095
      850.484776       0.462883
      850.520944       0.459676
      850.557115       0.456470
      850.593289       0.453262
      850.629466       0.450048
      850.665646       0.446823
      850.701829       0.443585
      850.738015       0.440330
      850.774205       0.437064
      850.810397       0.433791
      850.846592       0.430520
      850.882791       0.427255
      850.918993       0.424002
      850.955197       0.420768
      850.991405       0.417560
      851.027616       0.414383
      851.063830       0.411243
      851.100047       0.408145
      851.136267       0.405087
      851.172490       0.402065
      851.208716       0.399078
      851.244946       0.396120
      851.281178       0.393190
      851.317414       0.390282
      851.353652       0.387395
      851.389894       0.384525
      851.426139       0.381668
      851.462387       0.378820
      851.498638       0.375980
      851.534892       0.373143
      851.571149       0.370305
      851.607409       0.367464
      851.643672       0.364616
      851.679939       0.361756
      851.716208       0.358884
      851.752481       0.355994
      851.788756       0.353083
      851.825035       0.350150
      851.861317       0.347204
      851.897602       0.344254
      851.933890       0.341312
      851.970181       0.338386
      852.006475       0.335489
      852.042773       0.332629
      852.079073       0.329819
      852.115376       0.327067
      852.151683       0.324385
      852.187993       0.321779
      852.224305       0.319243
      852.260621       0.316765
      852.296940       0.314337
      852.333262       0.311946
      852.369587       0.309584
      852.405916       0.307238
      852.442247       0.304900
      852.478581       0.302558
      852.514919       0.300201
      852.551260       0.297822
      852.587603       0.295423
      852.623950       0.293006
      852.660300       0.290575
      852.696653       0.288134
      852.733009       0.285687
      852.769369       0.283237
      852.805731       0.280788
      852.842096       0.278342
      852.878465       0.275906
      852.914836       0.273481
      852.951211       0.271072
      852.987589       0.268682
      853.023970       0.266316
      853.060354       0.263977
      853.096741       0.261669
      853.133131       0.259394
      853.169525       0.257159
      853.205921       0.254966
      853.242321       0.252820
      853.278723       0.250721
      853.315129       0.248665
      853.351538       0.246644
      853.387950       0.244652
      853.424365       0.242681
      853.460783       0.240724
      853.497205       0.238772
      853.533629       0.236820
      853.570057       0.234860
      853.606487       0.232884
      853.642921       0.230888
      853.679358       0.228875
      853.715798       0.226851
      853.752241       0.224822
      853.788687       0.222792
      853.825137       0.220770
      853.861589       0.218759
      853.898045       0.216766
      853.934503       0.214797
      853.970965       0.212857
      854.007430       0.210951
      854.043898       0.209079
      854.080369       0.207239
      854.116843       0.205430
      854.153321       0.203651
      854.189801       0.201900
      854.226285       0.200174
      854.262771       0.198475
      854.299261       0.196798
      854.335754       0.195145
      854.372250       0.193511
      854.408749       0.191895
      854.445251       0.190291
      854.481757       0.188696
      854.518265       0.187106
      854.554777       0.185516
      854.591292       0.183923
      854.627810       0.182324
      854.664331       0.180712
      854.700855       0.179086
      854.737382       0.177442
      854.773912       0.175787
      854.810446       0.174125
      854.846982       0.172467
      854.883522       0.170818
      854.920065       0.169185
      854.956611       0.167576
      854.993160       0.165998
      855.029712       0.164457
      855.066268       0.162962
      855.102826       0.161516
      855.139388       0.160117
      855.175952       0.158758
      855.212520       0.157434
      855.249091       0.156137
      855.285665       0.154864
      855.322243       0.153606
      855.358823       0.152360
      855.395407       0.151117
      855.431993       0.149873
      855.468583       0.148623
      855.505176       0.147367
      855.541772       0.146103
      855.578371       0.144836
      855.614973       0.143563
      855.651579       0.142287
      855.688187       0.141007
      855.724799       0.139725
      855.761414       0.138441
      855.798032       0.137157
      855.834653       0.135872
      855.871277       0.134591
      855.907904       0.133318
      855.944535       0.132056
      855.981168       0.130808
      856.017805       0.129581
      856.054445       0.128375
      856.091088       0.127197
      856.127734       0.126049
      856.164384       0.124936
      856.201036       0.123859
      856.237692       0.122815
      856.274350       0.121799
      856.311012       0.120805
      856.347677       0.119828
      856.384345       0.118864
      856.421017       0.117907
      856.457691       0.116951
      856.494369       0.115991
      856.531049       0.115023
      856.567733       0.114042
      856.604420       0.113051
      856.641110       0.112051
      856.677803       0.111047
      856.714500       0.110040
      856.751199       0.109035
      856.787902       0.108034
      856.824608       0.107040
      856.861317       0.106057
      856.898029       0.105087
      856.934744       0.104133
      856.971463       0.103195
      857.008184       0.102273
      857.044909       0.101368
      857.081637       0.100478
      857.118368       0.099604
      857.155102       0.098745
      857.191840       0.097903
      857.228580       0.097075
      857.265324       0.096263
      857.302070       0.095466
      857.338820       0.094682
      857.375573       0.093907
      857.412330       0.093141
      857.449089       0.092379
      857.485851       0.091621
      857.522617       0.090863
      857.559386       0.090103
      857.596158       0.089337
      857.632933       0.088566
      857.669711       0.087785
      857.706493       0.086998
      857.743277       0.086208
      857.780065       0.085419
      857.816856       0.084632
      857.853650       0.083853
      857.890447       0.083083
      857.927248       0.082327
      857.964051       0.081586
      858.000858       0.080866
      858.037668       0.080167
      858.074481       0.079489
      858.111297       0.078829
      858.148116       0.078184
      858.184939       0.077553
      858.221765       0.076933
      858.258593       0.076321
      858.295425       0.075716
      858.332260       0.075115
      858.369099       0.074515
      858.405940       0.073915
      858.442785       0.073315
      858.479633       0.072714
      858.516484       0.072112
      858.553338       0.071508
      858.590195       0.070904
      858.627055       0.070299
      858.663919       0.069692
      858.700786       0.069084
      858.737656       0.068475
      858.774529       0.067864
      858.811405       0.067254
      858.848284       0.066646
      858.885167       0.066043
      858.922053       0.065445
      858.958942       0.064856
      858.995834       0.064277
      859.032729       0.063710
      859.069628       0.063156
      859.106529       0.062618
      859.143434       0.062097
      859.180342       0.061592
      859.217253       0.061099
      859.254167       0.060618
      859.291085       0.060144
      859.328005       0.059677
      859.364929       0.059212
      859.401856       0.058750
      859.438786       0.058286
      859.475720       0.057820
      859.512656       0.057348
      859.549596       0.056872
      859.586539       0.056392
      859.623485       0.055911
      859.660434       0.055429
      859.697387       0.054947
      859.734342       0.054466
      859.771301       0.053988
      859.808263       0.053512
      859.845228       0.053043
      859.882196       0.052578
      859.919168       0.052119
      859.956142       0.051666
      859.993120       0.051219
      860.030101       0.050778
      860.067085       0.050343
      860.104073       0.049913
      860.141063       0.049490
      860.178057       0.049072
      860.215054       0.048661
      860.252054       0.048255
      860.289057       0.047855
      860.326064       0.047458
      860.363073       0.047066
      860.400086       0.046674
      860.437102       0.046285
      860.474121       0.045896
      860.511144       0.045506
      860.548169       0.045115
      860.585198       0.044722
      860.622230       0.044326
      860.659265       0.043928
      860.696303       0.043528
      860.733345       0.043130
      860.770389       0.042734
      860.807437       0.042340
      860.844488       0.041951
      860.881543       0.041567
      860.918600       0.041190
      860.955661       0.040821
      860.992725       0.040460
      861.029792       0.040108
      861.066862       0.039763
      861.103935       0.039424
      861.141012       0.039091
      861.178092       0.038763
      861.215175       0.038438
      861.252261       0.038116
      861.289350       0.037796
      861.326443       0.037478
      861.363538       0.037159
      861.400637       0.036841
      861.437740       0.036523
      861.474845       0.036205
      861.511953       0.035887
      861.549065       0.035570
      861.586180       0.035252
      861.623298       0.034935
      861.660420       0.034617
      861.697544       0.034300
      861.734672       0.033982
      861.771803       0.033666
      861.808937       0.033350
      861.846074       0.033036
      861.883215       0.032725
      861.920359       0.032418
      861.957505       0.032114
      861.994656       0.031815
      862.031809       0.031520
      862.068966       0.031232
      862.106125       0.030950
      862.143288       0.030674
      862.180454       0.030402
      862.217624       0.030134
      862.254796       0.029870
      862.291972       0.029607
      862.329151       0.029346
      862.366333       0.029086
      862.403519       0.028826
      862.440707       0.028565
      862.477899       0.028302
      862.515094       0.028039
      862.552292       0.027774
      862.589494       0.027510
      862.626698       0.027246
      862.663906       0.026983
      862.701117       0.026721
      862.738331       0.026462
      862.775549       0.026204
      862.812770       0.025950
      862.849994       0.025700
      862.887221       0.025452
      862.924451       0.025208
      862.961685       0.024968
      862.998921       0.024731
      863.036161       0.024497
      863.073404       0.024267
      863.110651       0.024040
      863.147900       0.023816
      863.185153       0.023596
      863.222409       0.023379
      863.259669       0.023164
      863.296931       0.022952
      863.334197       0.022742
      863.371466       0.022534
      863.408738       0.022326
      863.446013       0.022119
      863.483292       0.021913
      863.520573       0.021706
      863.557858       0.021499
      863.595147       0.021291
      863.632438       0.021082
      863.669733       0.020873
      863.707031       0.020665
      863.744332       0.020458
      863.781636       0.020253
      863.818944       0.020050
      863.856254       0.019849
      863.893568       0.019652
      863.930886       0.019458
      863.968206       0.019268
      864.005530       0.019081
      864.042857       0.018898
      864.080187       0.018718
      864.117520       0.018540
      864.154857       0.018364
      864.192196       0.018190
      864.229539       0.018017
      864.266886       0.017845
      864.304235       0.017674
      864.341588       0.017503
      864.378944       0.017332
      864.416303       0.017161
      864.453665       0.016991
      864.491031       0.016822
      864.528400       0.016652
      864.565772       0.016483
      864.603147       0.016315
      864.640526       0.016147
      864.677907       0.015980
      864.715292       0.015814
      864.752681       0.015648
      864.790072       0.015484
      864.827467       0.015322
      864.864865       0.015162
      864.902266       0.015004
      864.939670       0.014849
      864.977078       0.014697
      865.014489       0.014549
      865.051903       0.014405
      865.089320       0.014265
      865.126741       0.014128
      865.164165       0.013994
      865.201592       0.013864
      865.239022       0.013735
      865.276456       0.013607
      865.313893       0.013481
      865.351333       0.013356
      865.388776       0.013230
      865.426222       0.013104
      865.463672       0.012978
      865.501125       0.012850
      865.538581       0.012723
      865.576041       0.012596
      865.613504       0.012469
      865.650970       0.012343
      865.688439       0.012218
      865.725911       0.012094
      865.763387       0.011973
      865.800866       0.011853
      865.838348       0.011735
      865.875833       0.011620
      865.913322       0.011507
      865.950814       0.011396
      865.988309       0.011287
      866.025808       0.011179
      866.063309       0.011074
      866.100814       0.010971
      866.138322       0.010869
      866.175834       0.010769
      866.213348       0.010670
      866.250866       0.010573
      866.288387       0.010477
      866.325912       0.010382
      866.363439       0.010287
      866.400970       0.010193
      866.438505       0.010098
      866.476042       0.010004
      866.513583       0.009909
      866.551127       0.009813
      866.588674       0.009717
      866.626224       0.009620
      866.663778       0.009523
      866.701335       0.009428
      866.738895       0.009333
      866.776458       0.009241
      866.814025       0.009150
      866.851595       0.009063
      866.889168       0.008979
      866.926745       0.008898
      866.964324       0.008822
      867.001907       0.008750
      867.039494       0.008681
      867.077083       0.008615
      867.114676       0.008551
      867.152272       0.008489
      867.189871       0.008428
      867.227474       0.008367
      867.265080       0.008307
      867.302689       0.008247
      867.340301       0.008186
      867.377917       0.008125
      867.415535       0.008063
      867.453158       0.008001
      867.490783       0.007939
      867.528412       0.007877
      867.566043       0.007815
      867.603679       0.007754
      867.641317       0.007694
      867.678959       0.007635
      867.716604       0.007576
      867.754252       0.007518
      867.791904       0.007461
      867.829558       0.007406
      867.867216       0.007351
      867.904878       0.007298
      867.942542       0.007246
      867.980210       0.007195
      868.017881       0.007146
      868.055556       0.007098
      868.093233       0.007052
      868.130914       0.007007
      868.168598       0.006964
      868.206286       0.006921
      868.243977       0.006879
      868.281671       0.006838
      868.319368       0.006797
      868.357068       0.006756
      868.394772       0.006715
      868.432479       0.006674
      868.470190       0.006632
      868.507903       0.006590
      868.545620       0.006549
      868.583341       0.006507
      868.621064       0.006465
      868.658791       0.006424
      868.696521       0.006383
      868.734254       0.006343
      868.771991       0.006304
      868.809731       0.006265
      868.847474       0.006228
      868.885220       0.006192
      868.922970       0.006156
      868.960723       0.006121
      868.998479       0.006087
      869.036239       0.006054
      869.074002       0.006021
      869.111768       0.005988
      869.149537       0.005956
      869.187310       0.005924
      869.225086       0.005892
      869.262865       0.005861
      869.300648       0.005829
      869.338433       0.005798
      869.376223       0.005767
      869.414015       0.005736
      869.451811       0.005705
      869.489610       0.005675
      869.527412       0.005644
      869.565217       0.005614
      869.603026       0.005584
      869.640838       0.005554
      869.678654       0.005524
      869.716472       0.005494
      869.754294       0.005464
      869.792120       0.005434
      869.829948       0.005404
      869.867780       0.005373
      869.905615       0.005343
      869.943454       0.005312
      869.981295       0.005281
      870.019140       0.005249
      870.056989       0.005218
      870.094840       0.005186
      870.132695       0.005154
      870.170553       0.005123
      870.208415       0.005091
      870.246280       0.005059
      870.284148       0.005028
      870.322019       0.004997
      870.359894       0.004967
      870.397772       0.004936
      870.435653       0.004906
      870.473538       0.004876
      870.511425       0.004846
      870.549317       0.004817
      870.587211       0.004787
      870.625109       0.004757
      870.663010       0.004727
      870.700914       0.004697
      870.738822       0.004666
      870.776733       0.004636
      870.814647       0.004605
      870.852565       0.004574
      870.890486       0.004543
      870.928410       0.004511
      870.966337       0.004480
      871.004268       0.004448
      871.042202       0.004416
      871.080139       0.004384
      871.118080       0.004351
      871.156024       0.004319
      871.193971       0.004286
      871.231922       0.004254
      871.269876       0.004221
      871.307833       0.004189
      871.345794       0.004157
      871.383757       0.004125
      871.421725       0.004093
      871.459695       0.004062
      871.497669       0.004031
      871.535646       0.004001
      871.573626       0.003971
      871.611610       0.003941
      871.649597       0.003911
      871.687587       0.003881
      871.725581       0.003851
      871.763578       0.003821
      871.801578       0.003790
      871.839582       0.003759
      871.877588       0.003727
      871.915599       0.003695
      871.953612       0.003662
      871.991629       0.003629
      872.029649       0.003596
      872.067672       0.003563
      872.105699       0.003530
      872.143729       0.003497
      872.181763       0.003464
      872.219799       0.003432
      872.257839       0.003399
      872.295883       0.003367
      872.333929       0.003336
      872.371979       0.003304
      872.410033       0.003273
      872.448089       0.003243
      872.486149       0.003212
      872.524213       0.003182
      872.562279       0.003151
      872.600349       0.003121
      872.638422       0.003092
      872.676499       0.003062
      872.714579       0.003032
      872.752662       0.003003
      872.790748       0.002973
      872.828838       0.002944
      872.866931       0.002915
      872.905028       0.002886
      872.943128       0.002858
      872.981231       0.002829
      873.019337       0.002801
      873.057447       0.002772
      873.095560       0.002744
      873.133677       0.002716
      873.171797       0.002688
      873.209920       0.002660
      873.248046       0.002632
      873.286176       0.002605
      873.324309       0.002578
      873.362445       0.002550
      873.400585       0.002524
      873.438728       0.002497
      873.476875       0.002470
      873.515024       0.002444
      873.553178       0.002418
      873.591334       0.002392
      873.629494       0.002366
      873.667657       0.002341
      873.705823       0.002316
      873.743993       0.002292
      873.782166       0.002267
      873.820343       0.002244
      873.858522       0.002220
      873.896705       0.002197
      873.934892       0.002174
      873.973082       0.002151
      874.011275       0.002129
      874.049471       0.002107
      874.087671       0.002085
      874.125874       0.002063
      874.164081       0.002042
      874.202290       0.002020
      874.240504       0.001999
      874.278720       0.001978
      874.316940       0.001958
      874.355163       0.001937
      874.393390       0.001917
      874.431619       0.001896
      874.469853       0.001876
      874.508089       0.001856
      874.546329       0.001836
      874.584572       0.001816
      874.622819       0.001796
      874.661069       0.001776
      874.699322       0.001757
      874.737579       0.001738
      874.775839       0.001720
      874.814102       0.001702
      874.852369       0.001684
      874.890639       0.001667
      874.928912       0.001651
      874.967189       0.001635
      875.005469       0.001619
      875.043752       0.001604
      875.082039       0.001589
      875.120329       0.001575
      875.158623       0.001560
      875.196919       0.001546
      875.235219       0.001531
      875.273523       0.001517
      875.311830       0.001502
      875.350140       0.001488
      875.388454       0.001474
      875.426771       0.001459
      875.465091       0.001445
      875.503414       0.001431
      875.541741       0.001417
      875.580072       0.001403
      875.618405       0.001390
      875.656743       0.001377
      875.695083       0.001364
      875.733427       0.001352
      875.771774       0.001340
      875.810124       0.001328
      875.848478       0.001316
      875.886835       0.001305
      875.925196       0.001294
      875.963560       0.001283
      876.001927       0.001273
      876.040298       0.001263
      876.078672       0.001253
      876.117049       0.001243
      876.155430       0.001233
      876.193814       0.001224
      876.232202       0.001215
      876.270592       0.001205
      876.308987       0.001196
      876.347384       0.001187
      876.385785       0.001178
      876.424189       0.001169
      876.462597       0.001160
      876.501008       0.001150
      876.539422       0.001141
      876.577840       0.001132
      876.616261       0.001123
      876.654686       0.001114
      876.693114       0.001106
      876.731545       0.001097
      876.769979       0.001089
      876.808417       0.001082
      876.846859       0.001075
      876.885303       0.001068
      876.923751       0.001062
      876.962203       0.001056
      877.000658       0.001051
      877.039116       0.001045
      877.077578       0.001040
      877.116042       0.001034
      877.154511       0.001029
      877.192982       0.001024
      877.231458       0.001018
      877.269936       0.001013
      877.308418       0.001007
      877.346903       0.001001
      877.385392       0.000996
      877.423883       0.000990
      877.462379       0.000985
      877.500878       0.000979
      877.539380       0.000974
      877.577885       0.000968
      877.616394       0.000963
      877.654906       0.000958
      877.693422       0.000954
      877.731941       0.000949
      877.770463       0.000944
      877.808989       0.000940
      877.847518       0.000936
      877.886050       0.000932
      877.924586       0.000928
      877.963126       0.000924
      878.001668       0.000920
      878.040214       0.000917
      878.078764       0.000914
      878.117316       0.000910
      878.155873       0.000907
      878.194432       0.000904
      878.232995       0.000901
      878.271562       0.000898
      878.310131       0.000895
      878.348704       0.000891
      878.387281       0.000888
      878.425861       0.000885
      878.464444       0.000882
      878.503031       0.000878
      878.541621       0.000875
      878.580214       0.000872
      878.618811       0.000869
      878.657411       0.000866
      878.696015       0.000863
      878.734622       0.000860
      878.773233       0.000857
      878.811846       0.000854
      878.850464       0.000852
      878.889084       0.000849
      878.927708       0.000847
      878.966336       0.000845
      879.004966       0.000842
      879.043601       0.000840
      879.082238       0.000838
      879.120879       0.000836
      879.159523       0.000833
      879.198171       0.000831
      879.236822       0.000829
      879.275477       0.000826
      879.314135       0.000824
      879.352796       0.000822
      879.391461       0.000820
      879.430129       0.000817
      879.468801       0.000815
      879.507476       0.000813
      879.546154       0.000810
      879.584836       0.000808
      879.623521       0.000806
      879.662210       0.000803
      879.700902       0.000801
      879.739597       0.000799
      879.778296       0.000796
