04, goes_14_imager_05.flt Release RevH plus STAR correction
Number of data points:
961
Wavenumber (cm-1)   Filter response
      700.000000       0.000000
      700.100000       0.000000
      700.200000       0.000000
      700.300000       0.000000
      700.400000       0.000000
      700.500000       0.000000
      700.600000       0.000000
      700.700000       0.000000
      700.800000       0.000000
      700.900000       0.000000
      701.000000       0.000002
      701.100000       0.000005
      701.200000       0.000010
      701.300000       0.000020
      701.400000       0.000035
      701.500000       0.000053
      701.600000       0.000069
      701.700000       0.000085
      701.800000       0.000104
      701.900000       0.000118
      702.000000       0.000122
      702.100000       0.000118
      702.200000       0.000114
      702.300000       0.000122
      702.400000       0.000146
      702.500000       0.000182
      702.600000       0.000218
      702.700000       0.000245
      702.800000       0.000256
      702.900000       0.000253
      703.000000       0.000248
      703.100000       0.000257
      703.200000       0.000284
      703.300000       0.000310
      703.400000       0.000322
      703.500000       0.000318
      703.600000       0.000303
      703.700000       0.000288
      703.800000       0.000280
      703.900000       0.000283
      704.000000       0.000295
      704.100000       0.000316
      704.200000       0.000338
      704.300000       0.000356
      704.400000       0.000369
      704.500000       0.000384
      704.600000       0.000400
      704.700000       0.000411
      704.800000       0.000417
      704.900000       0.000424
      705.000000       0.000441
      705.100000       0.000476
      705.200000       0.000519
      705.300000       0.000556
      705.400000       0.000584
      705.500000       0.000607
      705.600000       0.000622
      705.700000       0.000625
      705.800000       0.000623
      705.900000       0.000627
      706.000000       0.000637
      706.100000       0.000650
      706.200000       0.000656
      706.300000       0.000652
      706.400000       0.000646
      706.500000       0.000647
      706.600000       0.000654
      706.700000       0.000665
      706.800000       0.000677
      706.900000       0.000690
      707.000000       0.000703
      707.100000       0.000714
      707.200000       0.000724
      707.300000       0.000735
      707.400000       0.000755
      707.500000       0.000783
      707.600000       0.000812
      707.700000       0.000840
      707.800000       0.000874
      707.900000       0.000918
      708.000000       0.000967
      708.100000       0.001016
      708.200000       0.001055
      708.300000       0.001081
      708.400000       0.001096
      708.500000       0.001102
      708.600000       0.001103
      708.700000       0.001102
      708.800000       0.001101
      708.900000       0.001098
      709.000000       0.001087
      709.100000       0.001074
      709.200000       0.001069
      709.300000       0.001073
      709.400000       0.001081
      709.500000       0.001092
      709.600000       0.001108
      709.700000       0.001129
      709.800000       0.001152
      709.900000       0.001183
      710.000000       0.001221
      710.100000       0.001254
      710.200000       0.001272
      710.300000       0.001283
      710.400000       0.001294
      710.500000       0.001303
      710.600000       0.001308
      710.700000       0.001312
      710.800000       0.001318
      710.900000       0.001320
      711.000000       0.001316
      711.100000       0.001311
      711.200000       0.001315
      711.300000       0.001338
      711.400000       0.001381
      711.500000       0.001425
      711.600000       0.001463
      711.700000       0.001499
      711.800000       0.001533
      711.900000       0.001560
      712.000000       0.001589
      712.100000       0.001638
      712.200000       0.001697
      712.300000       0.001738
      712.400000       0.001758
      712.500000       0.001776
      712.600000       0.001802
      712.700000       0.001841
      712.800000       0.001899
      712.900000       0.001976
      713.000000       0.002053
      713.100000       0.002103
      713.200000       0.002124
      713.300000       0.002135
      713.400000       0.002161
      713.500000       0.002217
      713.600000       0.002290
      713.700000       0.002361
      713.800000       0.002431
      713.900000       0.002505
      714.000000       0.002575
      714.100000       0.002641
      714.200000       0.002720
      714.300000       0.002819
      714.400000       0.002918
      714.500000       0.003002
      714.600000       0.003072
      714.700000       0.003137
      714.800000       0.003205
      714.900000       0.003285
      715.000000       0.003387
      715.100000       0.003509
      715.200000       0.003638
      715.300000       0.003765
      715.400000       0.003890
      715.500000       0.004009
      715.600000       0.004119
      715.700000       0.004220
      715.800000       0.004316
      715.900000       0.004411
      716.000000       0.004510
      716.100000       0.004619
      716.200000       0.004740
      716.300000       0.004856
      716.400000       0.004948
      716.500000       0.005022
      716.600000       0.005097
      716.700000       0.005185
      716.800000       0.005289
      716.900000       0.005414
      717.000000       0.005558
      717.100000       0.005715
      717.200000       0.005873
      717.300000       0.006028
      717.400000       0.006182
      717.500000       0.006346
      717.600000       0.006531
      717.700000       0.006733
      717.800000       0.006948
      717.900000       0.007166
      718.000000       0.007386
      718.100000       0.007615
      718.200000       0.007858
      718.300000       0.008114
      718.400000       0.008380
      718.500000       0.008647
      718.600000       0.008918
      718.700000       0.009204
      718.800000       0.009515
      718.900000       0.009856
      719.000000       0.010219
      719.100000       0.010591
      719.200000       0.010967
      719.300000       0.011351
      719.400000       0.011743
      719.500000       0.012145
      719.600000       0.012564
      719.700000       0.013007
      719.800000       0.013470
      719.900000       0.013948
      720.000000       0.014445
      720.100000       0.014958
      720.200000       0.015476
      720.300000       0.016000
      720.400000       0.016549
      720.500000       0.017141
      720.600000       0.017785
      720.700000       0.018468
      720.800000       0.019170
      720.900000       0.019885
      721.000000       0.020612
      721.100000       0.021340
      721.200000       0.022069
      721.300000       0.022816
      721.400000       0.023597
      721.500000       0.024411
      721.600000       0.025260
      721.700000       0.026155
      721.800000       0.027101
      721.900000       0.028082
      722.000000       0.029089
      722.100000       0.030128
      722.200000       0.031209
      722.300000       0.032320
      722.400000       0.033455
      722.500000       0.034617
      722.600000       0.035816
      722.700000       0.037055
      722.800000       0.038331
      722.900000       0.039651
      723.000000       0.041024
      723.100000       0.042460
      723.200000       0.043960
      723.300000       0.045518
      723.400000       0.047132
      723.500000       0.048795
      723.600000       0.050510
      723.700000       0.052283
      723.800000       0.054112
      723.900000       0.055992
      724.000000       0.057918
      724.100000       0.059897
      724.200000       0.061934
      724.300000       0.064019
      724.400000       0.066146
      724.500000       0.068315
      724.600000       0.070548
      724.700000       0.072862
      724.800000       0.075265
      724.900000       0.077763
      725.000000       0.080344
      725.100000       0.082995
      725.200000       0.085706
      725.300000       0.088469
      725.400000       0.091287
      725.500000       0.094165
      725.600000       0.097115
      725.700000       0.100143
      725.800000       0.103245
      725.900000       0.106416
      726.000000       0.109642
      726.100000       0.112913
      726.200000       0.116235
      726.300000       0.119610
      726.400000       0.123051
      726.500000       0.126570
      726.600000       0.130176
      726.700000       0.133874
      726.800000       0.137657
      726.900000       0.141527
      727.000000       0.145476
      727.100000       0.149504
      727.200000       0.153612
      727.300000       0.157792
      727.400000       0.162045
      727.500000       0.166357
      727.600000       0.170729
      727.700000       0.175167
      727.800000       0.179667
      727.900000       0.184238
      728.000000       0.188875
      728.100000       0.193583
      728.200000       0.198367
      728.300000       0.203222
      728.400000       0.208149
      728.500000       0.213136
      728.600000       0.218175
      728.700000       0.223264
      728.800000       0.228396
      728.900000       0.233587
      729.000000       0.238841
      729.100000       0.244157
      729.200000       0.249533
      729.300000       0.254960
      729.400000       0.260447
      729.500000       0.265986
      729.600000       0.271576
      729.700000       0.277215
      729.800000       0.282889
      729.900000       0.288598
      730.000000       0.294321
      730.100000       0.300049
      730.200000       0.305787
      730.300000       0.311542
      730.400000       0.317329
      730.500000       0.323129
      730.600000       0.328941
      730.700000       0.334773
      730.800000       0.340629
      730.900000       0.346510
      731.000000       0.352386
      731.100000       0.358247
      731.200000       0.364091
      731.300000       0.369914
      731.400000       0.375730
      731.500000       0.381540
      731.600000       0.387350
      731.700000       0.393161
      731.800000       0.398973
      731.900000       0.404814
      732.000000       0.410679
      732.100000       0.416541
      732.200000       0.422376
      732.300000       0.428180
      732.400000       0.433972
      732.500000       0.439747
      732.600000       0.445501
      732.700000       0.451237
      732.800000       0.456959
      732.900000       0.462685
      733.000000       0.468405
      733.100000       0.474113
      733.200000       0.479814
      733.300000       0.485509
      733.400000       0.491198
      733.500000       0.496861
      733.600000       0.502486
      733.700000       0.508066
      733.800000       0.513597
      733.900000       0.519098
      734.000000       0.524584
      734.100000       0.530070
      734.200000       0.535565
      734.300000       0.541056
      734.400000       0.546534
      734.500000       0.551978
      734.600000       0.557388
      734.700000       0.562767
      734.800000       0.568097
      734.900000       0.573375
      735.000000       0.578594
      735.100000       0.583756
      735.200000       0.588861
      735.300000       0.593898
      735.400000       0.598870
      735.500000       0.603773
      735.600000       0.608614
      735.700000       0.613391
      735.800000       0.618100
      735.900000       0.622755
      736.000000       0.627354
      736.100000       0.631892
      736.200000       0.636362
      736.300000       0.640765
      736.400000       0.645121
      736.500000       0.649417
      736.600000       0.653626
      736.700000       0.657733
      736.800000       0.661748
      736.900000       0.665693
      737.000000       0.669566
      737.100000       0.673366
      737.200000       0.677094
      737.300000       0.680746
      737.400000       0.684329
      737.500000       0.687839
      737.600000       0.691283
      737.700000       0.694676
      737.800000       0.698016
      737.900000       0.701287
      738.000000       0.704462
      738.100000       0.707535
      738.200000       0.710509
      738.300000       0.713371
      738.400000       0.716118
      738.500000       0.718760
      738.600000       0.721337
      738.700000       0.723869
      738.800000       0.726337
      738.900000       0.728734
      739.000000       0.731082
      739.100000       0.733410
      739.200000       0.735700
      739.300000       0.737901
      739.400000       0.740015
      739.500000       0.742072
      739.600000       0.744090
      739.700000       0.746054
      739.800000       0.747957
      739.900000       0.749826
      740.000000       0.751688
      740.100000       0.753545
      740.200000       0.755385
      740.300000       0.757191
      740.400000       0.758951
      740.500000       0.760664
      740.600000       0.762344
      740.700000       0.764006
      740.800000       0.765658
      740.900000       0.767307
      741.000000       0.768961
      741.100000       0.770625
      741.200000       0.772287
      741.300000       0.773928
      741.400000       0.775543
      741.500000       0.777132
      741.600000       0.778697
      741.700000       0.780233
      741.800000       0.781742
      741.900000       0.783235
      742.000000       0.784722
      742.100000       0.786215
      742.200000       0.787721
      742.300000       0.789250
      742.400000       0.790809
      742.500000       0.792402
      742.600000       0.794029
      742.700000       0.795683
      742.800000       0.797353
      742.900000       0.799025
      743.000000       0.800687
      743.100000       0.802329
      743.200000       0.803937
      743.300000       0.805504
      743.400000       0.807043
      743.500000       0.808586
      743.600000       0.810155
      743.700000       0.811756
      743.800000       0.813392
      743.900000       0.815074
      744.000000       0.816805
      744.100000       0.818574
      744.200000       0.820362
      744.300000       0.822152
      744.400000       0.823940
      744.500000       0.825720
      744.600000       0.827490
      744.700000       0.829260
      744.800000       0.831049
      744.900000       0.832880
      745.000000       0.834756
      745.100000       0.836667
      745.200000       0.838587
      745.300000       0.840478
      745.400000       0.842333
      745.500000       0.844163
      745.600000       0.845994
      745.700000       0.847854
      745.800000       0.849755
      745.900000       0.851683
      746.000000       0.853611
      746.100000       0.855533
      746.200000       0.857445
      746.300000       0.859350
      746.400000       0.861256
      746.500000       0.863160
      746.600000       0.865064
      746.700000       0.866961
      746.800000       0.868843
      746.900000       0.870703
      747.000000       0.872539
      747.100000       0.874356
      747.200000       0.876161
      747.300000       0.877963
      747.400000       0.879768
      747.500000       0.881579
      747.600000       0.883396
      747.700000       0.885222
      747.800000       0.887057
      747.900000       0.888903
      748.000000       0.890755
      748.100000       0.892600
      748.200000       0.894424
      748.300000       0.896226
      748.400000       0.898020
      748.500000       0.899802
      748.600000       0.901558
      748.700000       0.903290
      748.800000       0.905022
      748.900000       0.906769
      749.000000       0.908499
      749.100000       0.910183
      749.200000       0.911840
      749.300000       0.913505
      749.400000       0.915192
      749.500000       0.916885
      749.600000       0.918582
      749.700000       0.920296
      749.800000       0.922012
      749.900000       0.923690
      750.000000       0.925300
      750.100000       0.926855
      750.200000       0.928387
      750.300000       0.929897
      750.400000       0.931383
      750.500000       0.932868
      750.600000       0.934399
      750.700000       0.935973
      750.800000       0.937526
      750.900000       0.939019
      751.000000       0.940463
      751.100000       0.941874
      751.200000       0.943248
      751.300000       0.944568
      751.400000       0.945840
      751.500000       0.947085
      751.600000       0.948325
      751.700000       0.949585
      751.800000       0.950858
      751.900000       0.952119
      752.000000       0.953350
      752.100000       0.954562
      752.200000       0.955761
      752.300000       0.956914
      752.400000       0.957993
      752.500000       0.959014
      752.600000       0.960020
      752.700000       0.961032
      752.800000       0.962053
      752.900000       0.963087
      753.000000       0.964143
      753.100000       0.965226
      753.200000       0.966325
      753.300000       0.967421
      753.400000       0.968484
      753.500000       0.969491
      753.600000       0.970449
      753.700000       0.971375
      753.800000       0.972268
      753.900000       0.973111
      754.000000       0.973922
      754.100000       0.974744
      754.200000       0.975597
      754.300000       0.976460
      754.400000       0.977321
      754.500000       0.978194
      754.600000       0.979094
      754.700000       0.980001
      754.800000       0.980888
      754.900000       0.981756
      755.000000       0.982620
      755.100000       0.983477
      755.200000       0.984310
      755.300000       0.985108
      755.400000       0.985877
      755.500000       0.986616
      755.600000       0.987322
      755.700000       0.987995
      755.800000       0.988642
      755.900000       0.989273
      756.000000       0.989873
      756.100000       0.990427
      756.200000       0.990930
      756.300000       0.991390
      756.400000       0.991832
      756.500000       0.992285
      756.600000       0.992755
      756.700000       0.993213
      756.800000       0.993638
      756.900000       0.994034
      757.000000       0.994400
      757.100000       0.994734
      757.200000       0.995040
      757.300000       0.995332
      757.400000       0.995627
      757.500000       0.995921
      757.600000       0.996204
      757.700000       0.996488
      757.800000       0.996804
      757.900000       0.997153
      758.000000       0.997510
      758.100000       0.997859
      758.200000       0.998207
      758.300000       0.998548
      758.400000       0.998858
      758.500000       0.999117
      758.600000       0.999337
      758.700000       0.999529
      758.800000       0.999689
      758.900000       0.999803
      759.000000       0.999881
      759.100000       0.999948
      759.200000       0.999996
      759.300000       1.000000
      759.400000       0.999951
      759.500000       0.999862
      759.600000       0.999739
      759.700000       0.999575
      759.800000       0.999357
      759.900000       0.999075
      760.000000       0.998731
      760.100000       0.998347
      760.200000       0.997946
      760.300000       0.997526
      760.400000       0.997074
      760.500000       0.996583
      760.600000       0.996050
      760.700000       0.995460
      760.800000       0.994804
      760.900000       0.994104
      761.000000       0.993400
      761.100000       0.992679
      761.200000       0.991870
      761.300000       0.990935
      761.400000       0.989886
      761.500000       0.988737
      761.600000       0.987471
      761.700000       0.986093
      761.800000       0.984664
      761.900000       0.983227
      762.000000       0.981770
      762.100000       0.980252
      762.200000       0.978649
      762.300000       0.976952
      762.400000       0.975165
      762.500000       0.973298
      762.600000       0.971340
      762.700000       0.969268
      762.800000       0.967077
      762.900000       0.964770
      763.000000       0.962343
      763.100000       0.959778
      763.200000       0.957092
      763.300000       0.954347
      763.400000       0.951570
      763.500000       0.948742
      763.600000       0.945829
      763.700000       0.942806
      763.800000       0.939657
      763.900000       0.936365
      764.000000       0.932929
      764.100000       0.929359
      764.200000       0.925666
      764.300000       0.921846
      764.400000       0.917881
      764.500000       0.913779
      764.600000       0.909555
      764.700000       0.905242
      764.800000       0.900878
      764.900000       0.896434
      765.000000       0.891866
      765.100000       0.887163
      765.200000       0.882341
      765.300000       0.877398
      765.400000       0.872304
      765.500000       0.867068
      765.600000       0.861715
      765.700000       0.856250
      765.800000       0.850664
      765.900000       0.844948
      766.000000       0.839135
      766.100000       0.833229
      766.200000       0.827219
      766.300000       0.821113
      766.400000       0.814912
      766.500000       0.808632
      766.600000       0.802274
      766.700000       0.795833
      766.800000       0.789310
      766.900000       0.782698
      767.000000       0.776018
      767.100000       0.769265
      767.200000       0.762410
      767.300000       0.755448
      767.400000       0.748390
      767.500000       0.741264
      767.600000       0.734047
      767.700000       0.726721
      767.800000       0.719318
      767.900000       0.711851
      768.000000       0.704312
      768.100000       0.696677
      768.200000       0.688960
      768.300000       0.681192
      768.400000       0.673348
      768.500000       0.665420
      768.600000       0.657433
      768.700000       0.649417
      768.800000       0.641371
      768.900000       0.633267
      769.000000       0.625131
      769.100000       0.616987
      769.200000       0.608819
      769.300000       0.600616
      769.400000       0.592369
      769.500000       0.584096
      769.600000       0.575772
      769.700000       0.567379
      769.800000       0.558972
      769.900000       0.550596
      770.000000       0.542239
      770.100000       0.533847
      770.200000       0.525441
      770.300000       0.517084
      770.400000       0.508740
      770.500000       0.500363
      770.600000       0.491950
      770.700000       0.483539
      770.800000       0.475171
      770.900000       0.466849
      771.000000       0.458577
      771.100000       0.450331
      771.200000       0.442088
      771.300000       0.433849
      771.400000       0.425588
      771.500000       0.417316
      771.600000       0.409071
      771.700000       0.400912
      771.800000       0.392857
      771.900000       0.384867
      772.000000       0.376941
      772.100000       0.369079
      772.200000       0.361284
      772.300000       0.353563
      772.400000       0.345905
      772.500000       0.338312
      772.600000       0.330798
      772.700000       0.323380
      772.800000       0.316058
      772.900000       0.308791
      773.000000       0.301598
      773.100000       0.294512
      773.200000       0.287531
      773.300000       0.280644
      773.400000       0.273845
      773.500000       0.267159
      773.600000       0.260574
      773.700000       0.254049
      773.800000       0.247586
      773.900000       0.241205
      774.000000       0.234936
      774.100000       0.228790
      774.200000       0.222766
      774.300000       0.216862
      774.400000       0.211056
      774.500000       0.205339
      774.600000       0.199720
      774.700000       0.194226
      774.800000       0.188880
      774.900000       0.183669
      775.000000       0.178579
      775.100000       0.173585
      775.200000       0.168689
      775.300000       0.163923
      775.400000       0.159292
      775.500000       0.154782
      775.600000       0.150370
      775.700000       0.146042
      775.800000       0.141804
      775.900000       0.137671
      776.000000       0.133658
      776.100000       0.129759
      776.200000       0.125960
      776.300000       0.122254
      776.400000       0.118633
      776.500000       0.115105
      776.600000       0.111677
      776.700000       0.108352
      776.800000       0.105132
      776.900000       0.102006
      777.000000       0.098970
      777.100000       0.096014
      777.200000       0.093131
      777.300000       0.090316
      777.400000       0.087566
      777.500000       0.084914
      777.600000       0.082386
      777.700000       0.079950
      777.800000       0.077557
      777.900000       0.075201
      778.000000       0.072918
      778.100000       0.070713
      778.200000       0.068570
      778.300000       0.066498
      778.400000       0.064515
      778.500000       0.062629
      778.600000       0.060818
      778.700000       0.059059
      778.800000       0.057330
      778.900000       0.055619
      779.000000       0.053932
      779.100000       0.052274
      779.200000       0.050643
      779.300000       0.049045
      779.400000       0.047495
      779.500000       0.046007
      779.600000       0.044585
      779.700000       0.043227
      779.800000       0.041924
      779.900000       0.040662
      780.000000       0.039445
      780.100000       0.038273
      780.200000       0.037141
      780.300000       0.036044
      780.400000       0.034982
      780.500000       0.033960
      780.600000       0.032972
      780.700000       0.032012
      780.800000       0.031088
      780.900000       0.030212
      781.000000       0.029385
      781.100000       0.028579
      781.200000       0.027782
      781.300000       0.026998
      781.400000       0.026228
      781.500000       0.025462
      781.600000       0.024690
      781.700000       0.023910
      781.800000       0.023134
      781.900000       0.022387
      782.000000       0.021697
      782.100000       0.021064
      782.200000       0.020466
      782.300000       0.019890
      782.400000       0.019327
      782.500000       0.018770
      782.600000       0.018214
      782.700000       0.017661
      782.800000       0.017120
      782.900000       0.016604
      783.000000       0.016131
      783.100000       0.015714
      783.200000       0.015352
      783.300000       0.015029
      783.400000       0.014731
      783.500000       0.014442
      783.600000       0.014142
      783.700000       0.013802
      783.800000       0.013404
      783.900000       0.012972
      784.000000       0.012554
      784.100000       0.012163
      784.200000       0.011786
      784.300000       0.011411
      784.400000       0.011041
      784.500000       0.010681
      784.600000       0.010324
      784.700000       0.009965
      784.800000       0.009603
      784.900000       0.009248
      785.000000       0.008910
      785.100000       0.008604
      785.200000       0.008332
      785.300000       0.008075
      785.400000       0.007814
      785.500000       0.007565
      785.600000       0.007353
      785.700000       0.007179
      785.800000       0.007011
      785.900000       0.006832
      786.000000       0.006647
      786.100000       0.006459
      786.200000       0.006267
      786.300000       0.006066
      786.400000       0.005868
      786.500000       0.005694
      786.600000       0.005554
      786.700000       0.005443
      786.800000       0.005346
      786.900000       0.005239
      787.000000       0.005100
      787.100000       0.004931
      787.200000       0.004744
      787.300000       0.004552
      787.400000       0.004365
      787.500000       0.004189
      787.600000       0.004019
      787.700000       0.003852
      787.800000       0.003691
      787.900000       0.003540
      788.000000       0.003393
      788.100000       0.003246
      788.200000       0.003100
      788.300000       0.002968
      788.400000       0.002854
      788.500000       0.002754
      788.600000       0.002662
      788.700000       0.002579
      788.800000       0.002510
      788.900000       0.002447
      789.000000       0.002377
      789.100000       0.002303
      789.200000       0.002239
      789.300000       0.002191
      789.400000       0.002144
      789.500000       0.002086
      789.600000       0.002022
      789.700000       0.001966
      789.800000       0.001912
      789.900000       0.001840
      790.000000       0.001748
      790.100000       0.001658
      790.200000       0.001582
      790.300000       0.001498
      790.400000       0.001383
      790.500000       0.001248
      790.600000       0.001128
      790.700000       0.001036
      790.800000       0.000970
      790.900000       0.000917
      791.000000       0.000863
      791.100000       0.000797
      791.200000       0.000719
      791.300000       0.000633
      791.400000       0.000543
      791.500000       0.000451
      791.600000       0.000367
      791.700000       0.000308
      791.800000       0.000278
      791.900000       0.000256
      792.000000       0.000221
      792.100000       0.000173
      792.200000       0.000125
      792.300000       0.000083
      792.400000       0.000051
      792.500000       0.000030
      792.600000       0.000023
      792.700000       0.000025
      792.800000       0.000027
      792.900000       0.000020
      793.000000       0.000007
      793.100000       0.000000
      793.200000       0.000000
      793.300000       0.000000
      793.400000       0.000001
      793.500000       0.000000
      793.600000       0.000000
      793.700000       0.000000
      793.800000       0.000000
      793.900000       0.000000
      794.000000       0.000001
      794.100000       0.000007
      794.200000       0.000023
      794.300000       0.000047
      794.400000       0.000066
      794.500000       0.000066
      794.600000       0.000050
      794.700000       0.000028
      794.800000       0.000010
      794.900000       0.000000
      795.000000       0.000000
      795.100000       0.000000
      795.200000       0.000001
      795.300000       0.000000
      795.400000       0.000000
      795.500000       0.000000
      795.600000       0.000000
      795.700000       0.000000
      795.800000       0.000000
      795.900000       0.000000
      796.000000       0.000000
