7,   channel 7 SRF from file SRF_SIRS-D_Ch07.asc received July 2019 from Carsten Stanfuss
Number of data points:
281
Wavenumber (cm-1)   Filter response
      672.800000       0.000000
      672.850000       0.000000
      672.900000       0.000000
      672.950000       0.000000
      673.000000       0.000000
      673.050000       0.000000
      673.100000       0.000000
      673.150000       0.000000
      673.200000       0.000000
      673.250000       0.000000
      673.300000       0.000000
      673.350000       0.000000
      673.400000       0.000000
      673.450000       0.000000
      673.500000       0.000000
      673.550000       0.000000
      673.600000       0.000000
      673.650000       0.000000
      673.700000       0.000000
      673.750000       0.000000
      673.800000       0.000000
      673.850000       0.000000
      673.900000       0.000000
      673.950000       0.000000
      674.000000       0.000000
      674.050000       0.000000
      674.100000       0.000000
      674.150000       0.000000
      674.200000       0.000000
      674.250000       0.000000
      674.300000       0.000000
      674.350000       0.000000
      674.400000       0.000000
      674.450000       0.000000
      674.500000       0.001000
      674.550000       0.011000
      674.600000       0.021000
      674.650000       0.031000
      674.700000       0.041000
      674.750000       0.051000
      674.800000       0.061000
      674.850000       0.071000
      674.900000       0.081000
      674.950000       0.091000
      675.000000       0.101000
      675.050000       0.111000
      675.100000       0.121000
      675.150000       0.131000
      675.200000       0.141000
      675.250000       0.151000
      675.300000       0.161000
      675.350000       0.171000
      675.400000       0.181000
      675.450000       0.191000
      675.500000       0.201000
      675.550000       0.211000
      675.600000       0.221000
      675.650000       0.231000
      675.700000       0.241000
      675.750000       0.251000
      675.800000       0.261000
      675.850000       0.271000
      675.900000       0.281000
      675.950000       0.291000
      676.000000       0.301000
      676.050000       0.311000
      676.100000       0.321000
      676.150000       0.331000
      676.200000       0.341000
      676.250000       0.351000
      676.300000       0.361000
      676.350000       0.371000
      676.400000       0.381000
      676.450000       0.391000
      676.500000       0.401000
      676.550000       0.411000
      676.600000       0.421000
      676.650000       0.431000
      676.700000       0.441000
      676.750000       0.451000
      676.800000       0.461000
      676.850000       0.471000
      676.900000       0.481000
      676.950000       0.491000
      677.000000       0.501000
      677.050000       0.511000
      677.100000       0.521000
      677.150000       0.531000
      677.200000       0.541000
      677.250000       0.551000
      677.300000       0.561000
      677.350000       0.571000
      677.400000       0.581000
      677.450000       0.591000
      677.500000       0.601000
      677.550000       0.611000
      677.600000       0.621000
      677.650000       0.631000
      677.700000       0.641000
      677.750000       0.651000
      677.800000       0.661000
      677.850000       0.671000
      677.900000       0.681000
      677.950000       0.691000
      678.000000       0.701000
      678.050000       0.711000
      678.100000       0.721000
      678.150000       0.731000
      678.200000       0.741000
      678.250000       0.751000
      678.300000       0.761000
      678.350000       0.771000
      678.400000       0.781000
      678.450000       0.791000
      678.500000       0.801000
      678.550000       0.811000
      678.600000       0.821000
      678.650000       0.831000
      678.700000       0.841000
      678.750000       0.851000
      678.800000       0.861000
      678.850000       0.871000
      678.900000       0.881000
      678.950000       0.891000
      679.000000       0.901000
      679.050000       0.911000
      679.100000       0.921000
      679.150000       0.931000
      679.200000       0.941000
      679.250000       0.951000
      679.300000       0.961000
      679.350000       0.971000
      679.400000       0.981000
      679.450000       0.991000
      679.500000       1.000000
      679.550000       1.000000
      679.600000       1.000000
      679.650000       1.000000
      679.700000       1.000000
      679.750000       1.000000
      679.800000       1.000000
      679.850000       1.000000
      679.900000       1.000000
      679.950000       1.000000
      680.000000       1.000000
      680.050000       1.000000
      680.100000       1.000000
      680.150000       0.991000
      680.200000       0.981000
      680.250000       0.971000
      680.300000       0.961000
      680.350000       0.951000
      680.400000       0.941000
      680.450000       0.931000
      680.500000       0.921000
      680.550000       0.911000
      680.600000       0.901000
      680.650000       0.891000
      680.700000       0.881000
      680.750000       0.871000
      680.800000       0.861000
      680.850000       0.851000
      680.900000       0.841000
      680.950000       0.831000
      681.000000       0.821000
      681.050000       0.811000
      681.100000       0.801000
      681.150000       0.791000
      681.200000       0.781000
      681.250000       0.771000
      681.300000       0.761000
      681.350000       0.751000
      681.400000       0.741000
      681.450000       0.731000
      681.500000       0.721000
      681.550000       0.711000
      681.600000       0.701000
      681.650000       0.691000
      681.700000       0.681000
      681.750000       0.671000
      681.800000       0.661000
      681.850000       0.651000
      681.900000       0.641000
      681.950000       0.631000
      682.000000       0.621000
      682.050000       0.611000
      682.100000       0.601000
      682.150000       0.591000
      682.200000       0.581000
      682.250000       0.571000
      682.300000       0.561000
      682.350000       0.551000
      682.400000       0.541000
      682.450000       0.531000
      682.500000       0.521000
      682.550000       0.511000
      682.600000       0.501000
      682.650000       0.491000
      682.700000       0.481000
      682.750000       0.471000
      682.800000       0.461000
      682.850000       0.451000
      682.900000       0.441000
      682.950000       0.431000
      683.000000       0.421000
      683.050000       0.411000
      683.100000       0.401000
      683.150000       0.391000
      683.200000       0.381000
      683.250000       0.371000
      683.300000       0.361000
      683.350000       0.351000
      683.400000       0.341000
      683.450000       0.331000
      683.500000       0.321000
      683.550000       0.311000
      683.600000       0.301000
      683.650000       0.291000
      683.700000       0.281000
      683.750000       0.271000
      683.800000       0.261000
      683.850000       0.251000
      683.900000       0.241000
      683.950000       0.231000
      684.000000       0.221000
      684.050000       0.211000
      684.100000       0.201000
      684.150000       0.191000
      684.200000       0.181000
      684.250000       0.171000
      684.300000       0.161000
      684.350000       0.151000
      684.400000       0.141000
      684.450000       0.131000
      684.500000       0.121000
      684.550000       0.111000
      684.600000       0.101000
      684.650000       0.091000
      684.700000       0.081000
      684.750000       0.071000
      684.800000       0.061000
      684.850000       0.051000
      684.900000       0.041000
      684.950000       0.031000
      685.000000       0.021000
      685.050000       0.011000
      685.100000       0.001000
      685.150000       0.000000
      685.200000       0.000000
      685.250000       0.000000
      685.300000       0.000000
      685.350000       0.000000
      685.400000       0.000000
      685.450000       0.000000
      685.500000       0.000000
      685.550000       0.000000
      685.600000       0.000000
      685.650000       0.000000
      685.700000       0.000000
      685.750000       0.000000
      685.800000       0.000000
      685.850000       0.000000
      685.900000       0.000000
      685.950000       0.000000
      686.000000       0.000000
      686.050000       0.000000
      686.100000       0.000000
      686.150000       0.000000
      686.200000       0.000000
      686.250000       0.000000
      686.300000       0.000000
      686.350000       0.000000
      686.400000       0.000000
      686.450000       0.000000
      686.500000       0.000000
      686.550000       0.000000
      686.600000       0.000000
      686.650000       0.000000
      686.700000       0.000000
      686.750000       0.000000
      686.800000       0.000000
