  14  ,noaa_15_hirs_14.flt
Number of data points:
88
Wavenumber (cm-1)   Filter response
     2181.800000       0.000000
     2188.300000       0.022800
     2188.800000       0.024575
     2189.300000       0.025622
     2189.800000       0.029747
     2190.300000       0.036226
     2190.800000       0.043889
     2191.300000       0.051566
     2191.800000       0.059403
     2192.300000       0.068427
     2192.800000       0.081294
     2193.300000       0.099486
     2193.800000       0.120510
     2194.300000       0.142000
     2194.800000       0.163230
     2195.300000       0.187450
     2195.800000       0.216740
     2196.300000       0.252130
     2196.800000       0.293070
     2197.300000       0.333760
     2197.800000       0.372440
     2198.300000       0.413260
     2198.800000       0.458290
     2199.300000       0.504440
     2199.800000       0.549900
     2200.300000       0.594560
     2200.800000       0.635570
     2201.300000       0.673660
     2201.800000       0.711630
     2202.300000       0.749780
     2202.800000       0.785290
     2203.300000       0.818000
     2203.800000       0.848360
     2204.300000       0.875020
     2204.800000       0.898490
     2205.300000       0.920530
     2205.800000       0.940200
     2206.300000       0.954490
     2206.800000       0.965320
     2207.300000       0.975580
     2207.800000       0.984340
     2208.300000       0.990400
     2208.800000       0.994500
     2209.300000       0.997860
     2209.800000       1.000000
     2210.300000       0.999260
     2210.800000       0.995630
     2211.300000       0.990760
     2211.800000       0.985880
     2212.300000       0.980080
     2212.800000       0.974120
     2213.300000       0.970110
     2213.800000       0.966400
     2214.300000       0.958270
     2214.800000       0.945900
     2215.300000       0.933990
     2215.800000       0.921280
     2216.300000       0.899550
     2216.800000       0.868620
     2217.300000       0.833410
     2217.800000       0.795870
     2218.300000       0.754890
     2218.800000       0.710320
     2219.300000       0.661840
     2219.800000       0.608070
     2220.300000       0.552660
     2220.800000       0.499780
     2221.300000       0.448660
     2221.800000       0.396660
     2222.300000       0.345320
     2222.800000       0.295970
     2223.300000       0.249700
     2223.800000       0.209630
     2224.300000       0.177050
     2224.800000       0.149330
     2225.300000       0.125260
     2225.800000       0.104390
     2226.300000       0.087509
     2226.800000       0.074490
     2227.300000       0.062212
     2227.800000       0.049260
     2228.300000       0.038469
     2228.800000       0.032691
     2229.300000       0.029582
     2229.800000       0.024719
     2231.400000       0.015929
     2240.200000       0.001641
     2240.500000       0.000000
