2,    channel 2 SRF extraacted from L9_OLI2_Ball_RSR.v1.0.xlsx (ch_res_2.txt)
Number of data points:
95
Wavenumber (cm-1)   Filter response
    18867.924500       0.000230
    18903.591700       0.000215
    18939.393900       0.000196
    18975.332100       0.000185
    19011.406800       0.000193
    19047.619000       0.000228
    19083.969500       0.000304
    19120.458900       0.000453
    19157.088100       0.000725
    19193.858000       0.001136
    19230.769200       0.001602
    19267.822700       0.002049
    19305.019300       0.002630
    19342.359800       0.003784
    19379.845000       0.005800
    19417.475700       0.012923
    19455.252900       0.032741
    19493.177400       0.112756
    19531.250000       0.413566
    19569.471600       0.799378
    19607.843100       0.923230
    19646.365400       0.956873
    19685.039400       0.943495
    19723.865900       0.919306
    19762.845800       0.923569
    19801.980200       0.952988
    19841.269800       0.983227
    19880.715700       1.000000
    19920.318700       0.989839
    19960.079800       0.966185
    20000.000000       0.951890
    20040.080200       0.948073
    20080.321300       0.959147
    20120.724300       0.954339
    20161.290300       0.927900
    20202.020200       0.901172
    20242.915000       0.896314
    20283.975700       0.908268
    20325.203300       0.927983
    20366.598800       0.943697
    20408.163300       0.947055
    20449.897800       0.946993
    20491.803300       0.945149
    20533.880900       0.943108
    20576.131700       0.942125
    20618.556700       0.942599
    20661.157000       0.942667
    20703.933700       0.940090
    20746.888000       0.937242
    20790.020800       0.930187
    20833.333300       0.916847
    20876.826700       0.902070
    20920.502100       0.892453
    20964.360600       0.886409
    21008.403400       0.879685
    21052.631600       0.867513
    21097.046400       0.853243
    21141.649000       0.833616
    21186.440700       0.817728
    21231.422500       0.815518
    21276.595700       0.835843
    21321.961600       0.866574
    21367.521400       0.891318
    21413.276200       0.900573
    21459.227500       0.898047
    21505.376300       0.893660
    21551.724100       0.888080
    21598.272100       0.882394
    21645.021600       0.881104
    21691.974000       0.881822
    21739.130400       0.879366
    21786.492400       0.875360
    21834.061100       0.874113
    21881.838100       0.873860
    21929.824600       0.873015
    21978.022000       0.870507
    22026.431700       0.850159
    22075.055200       0.754618
    22123.893800       0.526226
    22172.949000       0.284261
    22222.222200       0.128100
    22271.714900       0.061400
    22321.428600       0.027381
    22371.364700       0.013206
    22421.524700       0.007338
    22471.910100       0.004232
    22522.522500       0.001808
    22573.363400       0.001063
    22624.434400       0.000648
    22675.737000       0.000406
    22727.272700       0.000265
    22779.043300       0.000178
    22831.050200       0.000123
    22883.295200       0.000088
    22935.779800       0.000064
