04, goes_15_imager_05.flt Release RevH plus STAR correction
Number of data points:
961
Wavenumber (cm-1)   Filter response
      700.000000       0.000000
      700.100000       0.000000
      700.200000       0.000000
      700.300000       0.000000
      700.400000       0.000000
      700.500000       0.000000
      700.600000       0.000000
      700.700000       0.000000
      700.800000       0.000000
      700.900000       0.000000
      701.000000       0.000000
      701.100000       0.000000
      701.200000       0.000000
      701.300000       0.000000
      701.400000       0.000000
      701.500000       0.000000
      701.600000       0.000000
      701.700000       0.000000
      701.800000       0.000000
      701.900000       0.000000
      702.000000       0.000000
      702.100000       0.000000
      702.200000       0.000000
      702.300000       0.000000
      702.400000       0.000000
      702.500000       0.000000
      702.600000       0.000001
      702.700000       0.000000
      702.800000       0.000000
      702.900000       0.000001
      703.000000       0.000018
      703.100000       0.000043
      703.200000       0.000072
      703.300000       0.000090
      703.400000       0.000090
      703.500000       0.000080
      703.600000       0.000070
      703.700000       0.000064
      703.800000       0.000068
      703.900000       0.000083
      704.000000       0.000112
      704.100000       0.000161
      704.200000       0.000217
      704.300000       0.000251
      704.400000       0.000256
      704.500000       0.000256
      704.600000       0.000254
      704.700000       0.000232
      704.800000       0.000190
      704.900000       0.000152
      705.000000       0.000124
      705.100000       0.000101
      705.200000       0.000093
      705.300000       0.000123
      705.400000       0.000185
      705.500000       0.000262
      705.600000       0.000340
      705.700000       0.000409
      705.800000       0.000469
      705.900000       0.000527
      706.000000       0.000577
      706.100000       0.000612
      706.200000       0.000641
      706.300000       0.000675
      706.400000       0.000707
      706.500000       0.000726
      706.600000       0.000739
      706.700000       0.000755
      706.800000       0.000789
      706.900000       0.000846
      707.000000       0.000905
      707.100000       0.000945
      707.200000       0.000969
      707.300000       0.000985
      707.400000       0.001009
      707.500000       0.001049
      707.600000       0.001095
      707.700000       0.001137
      707.800000       0.001169
      707.900000       0.001189
      708.000000       0.001192
      708.100000       0.001183
      708.200000       0.001177
      708.300000       0.001169
      708.400000       0.001134
      708.500000       0.001079
      708.600000       0.001048
      708.700000       0.001050
      708.800000       0.001062
      708.900000       0.001078
      709.000000       0.001099
      709.100000       0.001118
      709.200000       0.001125
      709.300000       0.001126
      709.400000       0.001136
      709.500000       0.001154
      709.600000       0.001173
      709.700000       0.001199
      709.800000       0.001243
      709.900000       0.001283
      710.000000       0.001299
      710.100000       0.001314
      710.200000       0.001350
      710.300000       0.001387
      710.400000       0.001402
      710.500000       0.001433
      710.600000       0.001509
      710.700000       0.001594
      710.800000       0.001661
      710.900000       0.001731
      711.000000       0.001814
      711.100000       0.001889
      711.200000       0.001946
      711.300000       0.002010
      711.400000       0.002087
      711.500000       0.002139
      711.600000       0.002157
      711.700000       0.002164
      711.800000       0.002174
      711.900000       0.002189
      712.000000       0.002206
      712.100000       0.002220
      712.200000       0.002229
      712.300000       0.002239
      712.400000       0.002256
      712.500000       0.002284
      712.600000       0.002329
      712.700000       0.002394
      712.800000       0.002462
      712.900000       0.002509
      713.000000       0.002537
      713.100000       0.002555
      713.200000       0.002568
      713.300000       0.002578
      713.400000       0.002589
      713.500000       0.002599
      713.600000       0.002599
      713.700000       0.002577
      713.800000       0.002543
      713.900000       0.002514
      714.000000       0.002506
      714.100000       0.002538
      714.200000       0.002624
      714.300000       0.002764
      714.400000       0.002919
      714.500000       0.003059
      714.600000       0.003173
      714.700000       0.003259
      714.800000       0.003322
      714.900000       0.003375
      715.000000       0.003439
      715.100000       0.003527
      715.200000       0.003645
      715.300000       0.003778
      715.400000       0.003889
      715.500000       0.003974
      715.600000       0.004053
      715.700000       0.004126
      715.800000       0.004181
      715.900000       0.004237
      716.000000       0.004323
      716.100000       0.004430
      716.200000       0.004532
      716.300000       0.004638
      716.400000       0.004771
      716.500000       0.004923
      716.600000       0.005079
      716.700000       0.005228
      716.800000       0.005359
      716.900000       0.005466
      717.000000       0.005543
      717.100000       0.005617
      717.200000       0.005711
      717.300000       0.005829
      717.400000       0.005967
      717.500000       0.006105
      717.600000       0.006232
      717.700000       0.006360
      717.800000       0.006494
      717.900000       0.006634
      718.000000       0.006782
      718.100000       0.006953
      718.200000       0.007154
      718.300000       0.007379
      718.400000       0.007615
      718.500000       0.007840
      718.600000       0.008055
      718.700000       0.008274
      718.800000       0.008503
      718.900000       0.008737
      719.000000       0.008986
      719.100000       0.009268
      719.200000       0.009583
      719.300000       0.009925
      719.400000       0.010273
      719.500000       0.010604
      719.600000       0.010929
      719.700000       0.011268
      719.800000       0.011637
      719.900000       0.012045
      720.000000       0.012450
      720.100000       0.012819
      720.200000       0.013163
      720.300000       0.013496
      720.400000       0.013816
      720.500000       0.014135
      720.600000       0.014502
      720.700000       0.014933
      720.800000       0.015391
      720.900000       0.015861
      721.000000       0.016355
      721.100000       0.016862
      721.200000       0.017361
      721.300000       0.017868
      721.400000       0.018419
      721.500000       0.019014
      721.600000       0.019648
      721.700000       0.020316
      721.800000       0.021014
      721.900000       0.021742
      722.000000       0.022494
      722.100000       0.023256
      722.200000       0.024026
      722.300000       0.024812
      722.400000       0.025624
      722.500000       0.026462
      722.600000       0.027334
      722.700000       0.028248
      722.800000       0.029203
      722.900000       0.030193
      723.000000       0.031216
      723.100000       0.032276
      723.200000       0.033381
      723.300000       0.034536
      723.400000       0.035741
      723.500000       0.036986
      723.600000       0.038269
      723.700000       0.039596
      723.800000       0.040968
      723.900000       0.042373
      724.000000       0.043800
      724.100000       0.045245
      724.200000       0.046710
      724.300000       0.048207
      724.400000       0.049763
      724.500000       0.051384
      724.600000       0.053064
      724.700000       0.054803
      724.800000       0.056610
      724.900000       0.058498
      725.000000       0.060455
      725.100000       0.062471
      725.200000       0.064541
      725.300000       0.066666
      725.400000       0.068853
      725.500000       0.071105
      725.600000       0.073431
      725.700000       0.075833
      725.800000       0.078316
      725.900000       0.080884
      726.000000       0.083543
      726.100000       0.086295
      726.200000       0.089128
      726.300000       0.092035
      726.400000       0.095023
      726.500000       0.098104
      726.600000       0.101269
      726.700000       0.104496
      726.800000       0.107771
      726.900000       0.111102
      727.000000       0.114500
      727.100000       0.117984
      727.200000       0.121585
      727.300000       0.125307
      727.400000       0.129146
      727.500000       0.133094
      727.600000       0.137133
      727.700000       0.141253
      727.800000       0.145432
      727.900000       0.149657
      728.000000       0.153921
      728.100000       0.158251
      728.200000       0.162681
      728.300000       0.167201
      728.400000       0.171800
      728.500000       0.176465
      728.600000       0.181184
      728.700000       0.185957
      728.800000       0.190777
      728.900000       0.195657
      729.000000       0.200598
      729.100000       0.205608
      729.200000       0.210703
      729.300000       0.215865
      729.400000       0.221093
      729.500000       0.226376
      729.600000       0.231716
      729.700000       0.237120
      729.800000       0.242585
      729.900000       0.248129
      730.000000       0.253739
      730.100000       0.259404
      730.200000       0.265116
      730.300000       0.270854
      730.400000       0.276618
      730.500000       0.282425
      730.600000       0.288309
      730.700000       0.294259
      730.800000       0.300239
      730.900000       0.306232
      731.000000       0.312220
      731.100000       0.318204
      731.200000       0.324203
      731.300000       0.330235
      731.400000       0.336321
      731.500000       0.342470
      731.600000       0.348683
      731.700000       0.354949
      731.800000       0.361238
      731.900000       0.367527
      732.000000       0.373781
      732.100000       0.380009
      732.200000       0.386221
      732.300000       0.392409
      732.400000       0.398574
      732.500000       0.404717
      732.600000       0.410874
      732.700000       0.417063
      732.800000       0.423261
      732.900000       0.429453
      733.000000       0.435625
      733.100000       0.441766
      733.200000       0.447878
      733.300000       0.453958
      733.400000       0.460012
      733.500000       0.466037
      733.600000       0.472041
      733.700000       0.478046
      733.800000       0.484065
      733.900000       0.490099
      734.000000       0.496124
      734.100000       0.502125
      734.200000       0.508085
      734.300000       0.513980
      734.400000       0.519816
      734.500000       0.525581
      734.600000       0.531304
      734.700000       0.537016
      734.800000       0.542713
      734.900000       0.548389
      735.000000       0.554026
      735.100000       0.559621
      735.200000       0.565171
      735.300000       0.570670
      735.400000       0.576120
      735.500000       0.581498
      735.600000       0.586786
      735.700000       0.591983
      735.800000       0.597085
      735.900000       0.602113
      736.000000       0.607090
      736.100000       0.612032
      736.200000       0.616934
      736.300000       0.621781
      736.400000       0.626565
      736.500000       0.631263
      736.600000       0.635886
      736.700000       0.640442
      736.800000       0.644907
      736.900000       0.649247
      737.000000       0.653466
      737.100000       0.657609
      737.200000       0.661687
      737.300000       0.665667
      737.400000       0.669528
      737.500000       0.673293
      737.600000       0.676984
      737.700000       0.680593
      737.800000       0.684089
      737.900000       0.687491
      738.000000       0.690818
      738.100000       0.694078
      738.200000       0.697263
      738.300000       0.700362
      738.400000       0.703386
      738.500000       0.706333
      738.600000       0.709215
      738.700000       0.712029
      738.800000       0.714751
      738.900000       0.717349
      739.000000       0.719815
      739.100000       0.722156
      739.200000       0.724398
      739.300000       0.726590
      739.400000       0.728762
      739.500000       0.730905
      739.600000       0.733007
      739.700000       0.735063
      739.800000       0.737058
      739.900000       0.738987
      740.000000       0.740834
      740.100000       0.742630
      740.200000       0.744430
      740.300000       0.746249
      740.400000       0.748069
      740.500000       0.749866
      740.600000       0.751645
      740.700000       0.753398
      740.800000       0.755139
      740.900000       0.756879
      741.000000       0.758623
      741.100000       0.760373
      741.200000       0.762130
      741.300000       0.763894
      741.400000       0.765668
      741.500000       0.767451
      741.600000       0.769242
      741.700000       0.771037
      741.800000       0.772830
      741.900000       0.774629
      742.000000       0.776440
      742.100000       0.778258
      742.200000       0.780067
      742.300000       0.781867
      742.400000       0.783679
      742.500000       0.785499
      742.600000       0.787273
      742.700000       0.788963
      742.800000       0.790577
      742.900000       0.792136
      743.000000       0.793640
      743.100000       0.795087
      743.200000       0.796489
      743.300000       0.797872
      743.400000       0.799252
      743.500000       0.800627
      743.600000       0.801991
      743.700000       0.803324
      743.800000       0.804602
      743.900000       0.805839
      744.000000       0.807047
      744.100000       0.808239
      744.200000       0.809421
      744.300000       0.810596
      744.400000       0.811766
      744.500000       0.812936
      744.600000       0.814134
      744.700000       0.815385
      744.800000       0.816680
      744.900000       0.818014
      745.000000       0.819370
      745.100000       0.820732
      745.200000       0.822084
      745.300000       0.823398
      745.400000       0.824676
      745.500000       0.825954
      745.600000       0.827269
      745.700000       0.828652
      745.800000       0.830129
      745.900000       0.831679
      746.000000       0.833270
      746.100000       0.834892
      746.200000       0.836546
      746.300000       0.838218
      746.400000       0.839876
      746.500000       0.841506
      746.600000       0.843153
      746.700000       0.844855
      746.800000       0.846627
      746.900000       0.848481
      747.000000       0.850394
      747.100000       0.852336
      747.200000       0.854287
      747.300000       0.856229
      747.400000       0.858156
      747.500000       0.860072
      747.600000       0.861987
      747.700000       0.863924
      747.800000       0.865902
      747.900000       0.867901
      748.000000       0.869890
      748.100000       0.871889
      748.200000       0.873953
      748.300000       0.876082
      748.400000       0.878225
      748.500000       0.880348
      748.600000       0.882455
      748.700000       0.884548
      748.800000       0.886598
      748.900000       0.888579
      749.000000       0.890514
      749.100000       0.892452
      749.200000       0.894403
      749.300000       0.896348
      749.400000       0.898279
      749.500000       0.900198
      749.600000       0.902105
      749.700000       0.903991
      749.800000       0.905839
      749.900000       0.907641
      750.000000       0.909383
      750.100000       0.911079
      750.200000       0.912757
      750.300000       0.914418
      750.400000       0.916050
      750.500000       0.917640
      750.600000       0.919191
      750.700000       0.920703
      750.800000       0.922164
      750.900000       0.923567
      751.000000       0.924925
      751.100000       0.926258
      751.200000       0.927575
      751.300000       0.928874
      751.400000       0.930157
      751.500000       0.931432
      751.600000       0.932696
      751.700000       0.933932
      751.800000       0.935123
      751.900000       0.936294
      752.000000       0.937468
      752.100000       0.938633
      752.200000       0.939767
      752.300000       0.940887
      752.400000       0.942046
      752.500000       0.943252
      752.600000       0.944469
      752.700000       0.945665
      752.800000       0.946825
      752.900000       0.947942
      753.000000       0.949042
      753.100000       0.950151
      753.200000       0.951266
      753.300000       0.952362
      753.400000       0.953434
      753.500000       0.954482
      753.600000       0.955499
      753.700000       0.956467
      753.800000       0.957380
      753.900000       0.958291
      754.000000       0.959239
      754.100000       0.960211
      754.200000       0.961181
      754.300000       0.962137
      754.400000       0.963071
      754.500000       0.963981
      754.600000       0.964865
      754.700000       0.965730
      754.800000       0.966597
      754.900000       0.967481
      755.000000       0.968378
      755.100000       0.969284
      755.200000       0.970188
      755.300000       0.971074
      755.400000       0.971932
      755.500000       0.972754
      755.600000       0.973557
      755.700000       0.974379
      755.800000       0.975217
      755.900000       0.976022
      756.000000       0.976763
      756.100000       0.977434
      756.200000       0.978028
      756.300000       0.978554
      756.400000       0.979025
      756.500000       0.979506
      756.600000       0.980069
      756.700000       0.980690
      756.800000       0.981305
      756.900000       0.981893
      757.000000       0.982461
      757.100000       0.983014
      757.200000       0.983562
      757.300000       0.984109
      757.400000       0.984654
      757.500000       0.985195
      757.600000       0.985736
      757.700000       0.986278
      757.800000       0.986812
      757.900000       0.987324
      758.000000       0.987808
      758.100000       0.988253
      758.200000       0.988684
      758.300000       0.989148
      758.400000       0.989664
      758.500000       0.990206
      758.600000       0.990757
      758.700000       0.991298
      758.800000       0.991812
      758.900000       0.992286
      759.000000       0.992706
      759.100000       0.993096
      759.200000       0.993482
      759.300000       0.993864
      759.400000       0.994226
      759.500000       0.994579
      759.600000       0.994952
      759.700000       0.995355
      759.800000       0.995783
      759.900000       0.996236
      760.000000       0.996707
      760.100000       0.997184
      760.200000       0.997632
      760.300000       0.998020
      760.400000       0.998359
      760.500000       0.998656
      760.600000       0.998908
      760.700000       0.999098
      760.800000       0.999235
      760.900000       0.999336
      761.000000       0.999424
      761.100000       0.999536
      761.200000       0.999671
      761.300000       0.999803
      761.400000       0.999910
      761.500000       0.999983
      761.600000       1.000000
      761.700000       0.999915
      761.800000       0.999693
      761.900000       0.999380
      762.000000       0.999015
      762.100000       0.998590
      762.200000       0.998085
      762.300000       0.997525
      762.400000       0.996942
      762.500000       0.996304
      762.600000       0.995541
      762.700000       0.994642
      762.800000       0.993634
      762.900000       0.992508
      763.000000       0.991223
      763.100000       0.989781
      763.200000       0.988254
      763.300000       0.986664
      763.400000       0.984940
      763.500000       0.983032
      763.600000       0.980980
      763.700000       0.978816
      763.800000       0.976536
      763.900000       0.974118
      764.000000       0.971564
      764.100000       0.968862
      764.200000       0.965999
      764.300000       0.962952
      764.400000       0.959736
      764.500000       0.956380
      764.600000       0.952911
      764.700000       0.949349
      764.800000       0.945704
      764.900000       0.941953
      765.000000       0.938094
      765.100000       0.934123
      765.200000       0.930036
      765.300000       0.925848
      765.400000       0.921550
      765.500000       0.917133
      765.600000       0.912576
      765.700000       0.907858
      765.800000       0.902979
      765.900000       0.897983
      766.000000       0.892912
      766.100000       0.887776
      766.200000       0.882569
      766.300000       0.877278
      766.400000       0.871868
      766.500000       0.866341
      766.600000       0.860686
      766.700000       0.854925
      766.800000       0.849093
      766.900000       0.843198
      767.000000       0.837257
      767.100000       0.831264
      767.200000       0.825204
      767.300000       0.819065
      767.400000       0.812807
      767.500000       0.806460
      767.600000       0.800063
      767.700000       0.793610
      767.800000       0.787073
      767.900000       0.780434
      768.000000       0.773709
      768.100000       0.766901
      768.200000       0.760015
      768.300000       0.753079
      768.400000       0.746115
      768.500000       0.739131
      768.600000       0.732091
      768.700000       0.724975
      768.800000       0.717802
      768.900000       0.710559
      769.000000       0.703235
      769.100000       0.695805
      769.200000       0.688254
      769.300000       0.680595
      769.400000       0.672866
      769.500000       0.665110
      769.600000       0.657337
      769.700000       0.649549
      769.800000       0.641747
      769.900000       0.633906
      770.000000       0.626011
      770.100000       0.618031
      770.200000       0.609940
      770.300000       0.601742
      770.400000       0.593484
      770.500000       0.585222
      770.600000       0.576983
      770.700000       0.568780
      770.800000       0.560637
      770.900000       0.552540
      771.000000       0.544443
      771.100000       0.536310
      771.200000       0.528192
      771.300000       0.520135
      771.400000       0.512084
      771.500000       0.504011
      771.600000       0.495930
      771.700000       0.487847
      771.800000       0.479725
      771.900000       0.471527
      772.000000       0.463322
      772.100000       0.455172
      772.200000       0.447109
      772.300000       0.439168
      772.400000       0.431285
      772.500000       0.423422
      772.600000       0.415561
      772.700000       0.407697
      772.800000       0.399845
      772.900000       0.392006
      773.000000       0.384206
      773.100000       0.376453
      773.200000       0.368745
      773.300000       0.361095
      773.400000       0.353520
      773.500000       0.346048
      773.600000       0.338640
      773.700000       0.331256
      773.800000       0.323911
      773.900000       0.316616
      774.000000       0.309396
      774.100000       0.302272
      774.200000       0.295245
      774.300000       0.288337
      774.400000       0.281535
      774.500000       0.274845
      774.600000       0.268262
      774.700000       0.261788
      774.800000       0.255442
      774.900000       0.249228
      775.000000       0.243120
      775.100000       0.237078
      775.200000       0.231091
      775.300000       0.225170
      775.400000       0.219314
      775.500000       0.213540
      775.600000       0.207849
      775.700000       0.202248
      775.800000       0.196741
      775.900000       0.191326
      776.000000       0.186036
      776.100000       0.180906
      776.200000       0.175911
      776.300000       0.171020
      776.400000       0.166211
      776.500000       0.161490
      776.600000       0.156866
      776.700000       0.152360
      776.800000       0.147972
      776.900000       0.143681
      777.000000       0.139485
      777.100000       0.135381
      777.200000       0.131381
      777.300000       0.127521
      777.400000       0.123796
      777.500000       0.120182
      777.600000       0.116664
      777.700000       0.113234
      777.800000       0.109900
      777.900000       0.106666
      778.000000       0.103536
      778.100000       0.100488
      778.200000       0.097509
      778.300000       0.094591
      778.400000       0.091731
      778.500000       0.088942
      778.600000       0.086238
      778.700000       0.083628
      778.800000       0.081124
      778.900000       0.078697
      779.000000       0.076332
      779.100000       0.074014
      779.200000       0.071737
      779.300000       0.069519
      779.400000       0.067378
      779.500000       0.065321
      779.600000       0.063351
      779.700000       0.061453
      779.800000       0.059615
      779.900000       0.057815
      780.000000       0.056039
      780.100000       0.054280
      780.200000       0.052542
      780.300000       0.050852
      780.400000       0.049255
      780.500000       0.047770
      780.600000       0.046397
      780.700000       0.045121
      780.800000       0.043908
      780.900000       0.042735
      781.000000       0.041596
      781.100000       0.040473
      781.200000       0.039323
      781.300000       0.038135
      781.400000       0.036977
      781.500000       0.035909
      781.600000       0.034922
      781.700000       0.034006
      781.800000       0.033153
      781.900000       0.032356
      782.000000       0.031575
      782.100000       0.030766
      782.200000       0.029930
      782.300000       0.029086
      782.400000       0.028248
      782.500000       0.027431
      782.600000       0.026634
      782.700000       0.025855
      782.800000       0.025099
      782.900000       0.024384
      783.000000       0.023719
      783.100000       0.023088
      783.200000       0.022477
      783.300000       0.021865
      783.400000       0.021238
      783.500000       0.020616
      783.600000       0.020022
      783.700000       0.019472
      783.800000       0.018980
      783.900000       0.018529
      784.000000       0.018086
      784.100000       0.017643
      784.200000       0.017220
      784.300000       0.016822
      784.400000       0.016433
      784.500000       0.016039
      784.600000       0.015622
      784.700000       0.015172
      784.800000       0.014720
      784.900000       0.014307
      785.000000       0.013941
      785.100000       0.013619
      785.200000       0.013326
      785.300000       0.013037
      785.400000       0.012736
      785.500000       0.012418
      785.600000       0.012085
      785.700000       0.011760
      785.800000       0.011475
      785.900000       0.011219
      786.000000       0.010964
      786.100000       0.010702
      786.200000       0.010436
      786.300000       0.010173
      786.400000       0.009919
      786.500000       0.009680
      786.600000       0.009455
      786.700000       0.009239
      786.800000       0.009026
      786.900000       0.008808
      787.000000       0.008580
      787.100000       0.008343
      787.200000       0.008097
      787.300000       0.007847
      787.400000       0.007599
      787.500000       0.007362
      787.600000       0.007146
      787.700000       0.006954
      787.800000       0.006791
      787.900000       0.006651
      788.000000       0.006523
      788.100000       0.006402
      788.200000       0.006285
      788.300000       0.006172
      788.400000       0.006057
      788.500000       0.005932
      788.600000       0.005798
      788.700000       0.005657
      788.800000       0.005504
      788.900000       0.005324
      789.000000       0.005121
      789.100000       0.004927
      789.200000       0.004763
      789.300000       0.004620
      789.400000       0.004485
      789.500000       0.004352
      789.600000       0.004215
      789.700000       0.004063
      789.800000       0.003879
      789.900000       0.003670
      790.000000       0.003486
      790.100000       0.003351
      790.200000       0.003236
      790.300000       0.003114
      790.400000       0.002997
      790.500000       0.002904
      790.600000       0.002826
      790.700000       0.002738
      790.800000       0.002640
      790.900000       0.002548
      791.000000       0.002475
      791.100000       0.002410
      791.200000       0.002349
      791.300000       0.002292
      791.400000       0.002244
      791.500000       0.002193
      791.600000       0.002126
      791.700000       0.002034
      791.800000       0.001918
      791.900000       0.001781
      792.000000       0.001635
      792.100000       0.001488
      792.200000       0.001350
      792.300000       0.001226
      792.400000       0.001124
      792.500000       0.001048
      792.600000       0.000997
      792.700000       0.000959
      792.800000       0.000923
      792.900000       0.000865
      793.000000       0.000769
      793.100000       0.000643
      793.200000       0.000496
      793.300000       0.000351
      793.400000       0.000231
      793.500000       0.000143
      793.600000       0.000082
      793.700000       0.000047
      793.800000       0.000035
      793.900000       0.000040
      794.000000       0.000046
      794.100000       0.000037
      794.200000       0.000023
      794.300000       0.000016
      794.400000       0.000018
      794.500000       0.000024
      794.600000       0.000035
      794.700000       0.000053
      794.800000       0.000079
      794.900000       0.000105
      795.000000       0.000119
      795.100000       0.000114
      795.200000       0.000081
      795.300000       0.000038
      795.400000       0.000009
      795.500000       0.000000
      795.600000       0.000000
      795.700000       0.000000
      795.800000       0.000000
      795.900000       0.000000
      796.000000       0.000000
