10,   channel 10 SRF from file WV073.txt received February 2021 from Eunha Sohn (KMA)
Number of data points:
839
Wavenumber (cm-1)   Filter response
     1324.600000       0.000310
     1324.700000       0.000310
     1324.800000       0.000310
     1324.900000       0.000311
     1325.000000       0.000312
     1325.100000       0.000315
     1325.200000       0.000320
     1325.300000       0.000329
     1325.400000       0.000340
     1325.500000       0.000355
     1325.600000       0.000372
     1325.700000       0.000391
     1325.800000       0.000411
     1325.900000       0.000432
     1326.000000       0.000455
     1326.100000       0.000480
     1326.200000       0.000507
     1326.300000       0.000537
     1326.400000       0.000569
     1326.500000       0.000603
     1326.600000       0.000639
     1326.700000       0.000677
     1326.800000       0.000718
     1326.900000       0.000764
     1327.000000       0.000810
     1327.100000       0.000857
     1327.200000       0.000891
     1327.300000       0.000924
     1327.400000       0.001054
     1327.500000       0.001270
     1327.600000       0.001564
     1327.700000       0.001732
     1327.800000       0.001789
     1327.900000       0.001850
     1328.000000       0.001919
     1328.100000       0.001994
     1328.200000       0.002074
     1328.300000       0.002160
     1328.400000       0.002245
     1328.500000       0.002331
     1328.600000       0.002412
     1328.700000       0.002490
     1328.800000       0.002562
     1328.900000       0.002627
     1329.000000       0.002684
     1329.100000       0.002733
     1329.200000       0.002774
     1329.300000       0.002801
     1329.400000       0.002819
     1329.500000       0.002818
     1329.600000       0.002810
     1329.700000       0.002790
     1329.800000       0.002761
     1329.900000       0.002729
     1330.000000       0.002694
     1330.100000       0.002660
     1330.200000       0.002626
     1330.300000       0.002592
     1330.400000       0.002560
     1330.500000       0.002530
     1330.600000       0.002503
     1330.700000       0.002480
     1330.800000       0.002460
     1330.900000       0.002457
     1331.000000       0.002461
     1331.100000       0.002474
     1331.200000       0.002497
     1331.300000       0.002520
     1331.400000       0.002545
     1331.500000       0.002570
     1331.600000       0.002596
     1331.700000       0.002623
     1331.800000       0.002651
     1331.900000       0.002680
     1332.000000       0.002709
     1332.100000       0.002740
     1332.200000       0.002774
     1332.300000       0.002812
     1332.400000       0.002854
     1332.500000       0.002902
     1332.600000       0.002954
     1332.700000       0.003009
     1332.800000       0.003065
     1332.900000       0.003124
     1333.000000       0.003185
     1333.100000       0.003249
     1333.200000       0.003316
     1333.300000       0.003386
     1333.400000       0.003460
     1333.500000       0.003538
     1333.600000       0.003624
     1333.700000       0.003722
     1333.800000       0.003834
     1333.900000       0.003960
     1334.000000       0.004099
     1334.100000       0.004244
     1334.200000       0.004391
     1334.300000       0.004532
     1334.400000       0.004660
     1334.500000       0.004769
     1334.600000       0.004862
     1334.700000       0.004938
     1334.800000       0.005008
     1334.900000       0.005075
     1335.000000       0.005142
     1335.100000       0.005209
     1335.200000       0.005275
     1335.300000       0.005342
     1335.400000       0.005408
     1335.500000       0.005474
     1335.600000       0.005541
     1335.700000       0.005609
     1335.800000       0.005680
     1335.900000       0.005753
     1336.000000       0.005829
     1336.100000       0.005908
     1336.200000       0.005992
     1336.300000       0.006080
     1336.400000       0.006174
     1336.500000       0.006274
     1336.600000       0.006380
     1336.700000       0.006491
     1336.800000       0.006608
     1336.900000       0.006730
     1337.000000       0.006860
     1337.100000       0.006997
     1337.200000       0.007141
     1337.300000       0.007292
     1337.400000       0.007451
     1337.500000       0.007619
     1337.600000       0.007796
     1337.700000       0.007982
     1337.800000       0.008178
     1337.900000       0.008384
     1338.000000       0.008601
     1338.100000       0.008832
     1338.200000       0.009079
     1338.300000       0.009341
     1338.400000       0.009622
     1338.500000       0.009926
     1338.600000       0.010261
     1338.700000       0.010618
     1338.800000       0.011003
     1338.900000       0.011416
     1339.000000       0.011856
     1339.100000       0.012323
     1339.200000       0.012823
     1339.300000       0.013360
     1339.400000       0.013928
     1339.500000       0.014534
     1339.600000       0.015180
     1339.700000       0.015869
     1339.800000       0.016603
     1339.900000       0.017388
     1340.000000       0.018225
     1340.100000       0.019111
     1340.200000       0.020041
     1340.300000       0.021024
     1340.400000       0.022082
     1340.500000       0.023189
     1340.600000       0.024382
     1340.700000       0.025640
     1340.800000       0.026989
     1340.900000       0.028411
     1341.000000       0.029912
     1341.100000       0.031488
     1341.200000       0.033145
     1341.300000       0.034898
     1341.400000       0.036748
     1341.500000       0.038701
     1341.600000       0.040757
     1341.700000       0.042921
     1341.800000       0.045198
     1341.900000       0.047589
     1342.000000       0.050116
     1342.100000       0.052750
     1342.200000       0.055532
     1342.300000       0.058436
     1342.400000       0.061472
     1342.500000       0.064637
     1342.600000       0.067955
     1342.700000       0.071453
     1342.800000       0.075104
     1342.900000       0.078920
     1343.000000       0.082901
     1343.100000       0.087077
     1343.200000       0.091401
     1343.300000       0.095919
     1343.400000       0.100636
     1343.500000       0.105534
     1343.600000       0.110647
     1343.700000       0.115997
     1343.800000       0.121600
     1343.900000       0.127388
     1344.000000       0.133381
     1344.100000       0.139577
     1344.200000       0.145985
     1344.300000       0.152560
     1344.400000       0.159370
     1344.500000       0.166416
     1344.600000       0.173672
     1344.700000       0.181119
     1344.800000       0.188762
     1344.900000       0.196601
     1345.000000       0.204588
     1345.100000       0.212766
     1345.200000       0.221082
     1345.300000       0.229522
     1345.400000       0.238092
     1345.500000       0.246791
     1345.600000       0.255623
     1345.700000       0.264576
     1345.800000       0.273692
     1345.900000       0.282913
     1346.000000       0.292198
     1346.100000       0.301560
     1346.200000       0.311045
     1346.300000       0.320595
     1346.400000       0.330250
     1346.500000       0.339936
     1346.600000       0.349650
     1346.700000       0.359448
     1346.800000       0.369300
     1346.900000       0.379193
     1347.000000       0.389090
     1347.100000       0.398976
     1347.200000       0.408871
     1347.300000       0.418778
     1347.400000       0.428703
     1347.500000       0.438643
     1347.600000       0.448584
     1347.700000       0.458531
     1347.800000       0.468474
     1347.900000       0.478369
     1348.000000       0.488176
     1348.100000       0.497947
     1348.200000       0.507690
     1348.300000       0.517358
     1348.400000       0.526946
     1348.500000       0.536541
     1348.600000       0.546105
     1348.700000       0.555527
     1348.800000       0.564878
     1348.900000       0.574200
     1349.000000       0.583430
     1349.100000       0.592520
     1349.200000       0.601545
     1349.300000       0.610501
     1349.400000       0.619352
     1349.500000       0.628104
     1349.600000       0.636768
     1349.700000       0.645332
     1349.800000       0.653800
     1349.900000       0.662199
     1350.000000       0.670511
     1350.100000       0.678739
     1350.200000       0.686853
     1350.300000       0.694848
     1350.400000       0.702696
     1350.500000       0.710419
     1350.600000       0.718036
     1350.700000       0.725553
     1350.800000       0.732985
     1350.900000       0.740373
     1351.000000       0.747671
     1351.100000       0.754771
     1351.200000       0.761790
     1351.300000       0.768743
     1351.400000       0.775521
     1351.500000       0.782190
     1351.600000       0.790452
     1351.700000       0.799927
     1351.800000       0.809377
     1351.900000       0.818015
     1352.000000       0.824581
     1352.100000       0.830525
     1352.200000       0.836165
     1352.300000       0.841115
     1352.400000       0.845418
     1352.500000       0.849596
     1352.600000       0.853716
     1352.700000       0.857637
     1352.800000       0.861437
     1352.900000       0.865203
     1353.000000       0.868927
     1353.100000       0.872637
     1353.200000       0.876259
     1353.300000       0.879727
     1353.400000       0.883183
     1353.500000       0.886597
     1353.600000       0.889726
     1353.700000       0.892561
     1353.800000       0.894809
     1353.900000       0.896890
     1354.000000       0.899522
     1354.100000       0.902364
     1354.200000       0.904959
     1354.300000       0.907429
     1354.400000       0.909774
     1354.500000       0.912034
     1354.600000       0.914204
     1354.700000       0.916252
     1354.800000       0.918196
     1354.900000       0.920021
     1355.000000       0.921733
     1355.100000       0.923325
     1355.200000       0.924797
     1355.300000       0.926041
     1355.400000       0.927166
     1355.500000       0.928258
     1355.600000       0.929251
     1355.700000       0.930130
     1355.800000       0.930914
     1355.900000       0.931628
     1356.000000       0.932283
     1356.100000       0.932898
     1356.200000       0.933502
     1356.300000       0.934107
     1356.400000       0.934731
     1356.500000       0.935372
     1356.600000       0.936037
     1356.700000       0.936715
     1356.800000       0.937408
     1356.900000       0.938064
     1357.000000       0.938639
     1357.100000       0.939320
     1357.200000       0.940028
     1357.300000       0.940705
     1357.400000       0.941331
     1357.500000       0.941889
     1357.600000       0.942402
     1357.700000       0.942832
     1357.800000       0.943193
     1357.900000       0.943531
     1358.000000       0.943851
     1358.100000       0.944146
     1358.200000       0.944365
     1358.300000       0.944529
     1358.400000       0.944682
     1358.500000       0.944904
     1358.600000       0.945408
     1358.700000       0.946202
     1358.800000       0.947436
     1358.900000       0.949122
     1359.000000       0.951248
     1359.100000       0.953626
     1359.200000       0.956321
     1359.300000       0.959175
     1359.400000       0.962132
     1359.500000       0.965071
     1359.600000       0.967982
     1359.700000       0.970781
     1359.800000       0.973468
     1359.900000       0.975935
     1360.000000       0.978248
     1360.100000       0.980441
     1360.200000       0.982488
     1360.300000       0.984316
     1360.400000       0.985952
     1360.500000       0.987408
     1360.600000       0.988701
     1360.700000       0.989855
     1360.800000       0.990854
     1360.900000       0.991729
     1361.000000       0.992453
     1361.100000       0.993039
     1361.200000       0.993432
     1361.300000       0.993607
     1361.400000       0.993626
     1361.500000       0.993584
     1361.600000       0.993432
     1361.700000       0.993112
     1361.800000       0.992556
     1361.900000       0.991849
     1362.000000       0.990986
     1362.100000       0.989997
     1362.200000       0.988932
     1362.300000       0.987910
     1362.400000       0.986881
     1362.500000       0.985827
     1362.600000       0.984813
     1362.700000       0.983877
     1362.800000       0.983051
     1362.900000       0.982332
     1363.000000       0.981745
     1363.100000       0.981275
     1363.200000       0.980975
     1363.300000       0.980793
     1363.400000       0.980600
     1363.500000       0.980449
     1363.600000       0.980374
     1363.700000       0.980311
     1363.800000       0.980223
     1363.900000       0.980173
     1364.000000       0.980249
     1364.100000       0.980288
     1364.200000       0.980283
     1364.300000       0.980248
     1364.400000       0.980206
     1364.500000       0.980178
     1364.600000       0.980199
     1364.700000       0.980266
     1364.800000       0.980387
     1364.900000       0.980545
     1365.000000       0.980762
     1365.100000       0.981023
     1365.200000       0.981318
     1365.300000       0.981660
     1365.400000       0.982012
     1365.500000       0.982333
     1365.600000       0.982682
     1365.700000       0.983047
     1365.800000       0.983376
     1365.900000       0.983668
     1366.000000       0.983893
     1366.100000       0.984022
     1366.200000       0.983991
     1366.300000       0.983871
     1366.400000       0.983604
     1366.500000       0.983204
     1366.600000       0.982755
     1366.700000       0.982263
     1366.800000       0.981752
     1366.900000       0.981208
     1367.000000       0.980622
     1367.100000       0.980164
     1367.200000       0.979749
     1367.300000       0.979318
     1367.400000       0.978923
     1367.500000       0.978752
     1367.600000       0.978683
     1367.700000       0.978682
     1367.800000       0.978710
     1367.900000       0.978836
     1368.000000       0.979018
     1368.100000       0.979303
     1368.200000       0.979611
     1368.300000       0.979960
     1368.400000       0.980392
     1368.500000       0.980871
     1368.600000       0.981459
     1368.700000       0.982168
     1368.800000       0.982985
     1368.900000       0.983930
     1369.000000       0.985004
     1369.100000       0.986158
     1369.200000       0.987362
     1369.300000       0.988613
     1369.400000       0.989914
     1369.500000       0.991232
     1369.600000       0.992542
     1369.700000       0.993821
     1369.800000       0.995068
     1369.900000       0.996216
     1370.000000       0.997247
     1370.100000       0.998159
     1370.200000       0.998957
     1370.300000       0.999544
     1370.400000       0.999934
     1370.500000       0.999994
     1370.600000       0.999911
     1370.700000       0.999595
     1370.800000       0.999036
     1370.900000       0.998207
     1371.000000       0.997244
     1371.100000       0.996103
     1371.200000       0.994771
     1371.300000       0.993241
     1371.400000       0.991627
     1371.500000       0.989896
     1371.600000       0.988016
     1371.700000       0.985970
     1371.800000       0.983777
     1371.900000       0.981425
     1372.000000       0.978922
     1372.100000       0.976281
     1372.200000       0.973497
     1372.300000       0.970623
     1372.400000       0.967688
     1372.500000       0.964756
     1372.600000       0.961822
     1372.700000       0.958949
     1372.800000       0.956207
     1372.900000       0.953669
     1373.000000       0.951325
     1373.100000       0.949216
     1373.200000       0.947357
     1373.300000       0.945678
     1373.400000       0.944122
     1373.500000       0.942677
     1373.600000       0.941322
     1373.700000       0.940070
     1373.800000       0.938869
     1373.900000       0.937636
     1374.000000       0.936395
     1374.100000       0.935151
     1374.200000       0.933899
     1374.300000       0.932629
     1374.400000       0.931332
     1374.500000       0.929994
     1374.600000       0.928611
     1374.700000       0.927162
     1374.800000       0.925650
     1374.900000       0.924062
     1375.000000       0.922392
     1375.100000       0.920627
     1375.200000       0.918788
     1375.300000       0.916854
     1375.400000       0.914846
     1375.500000       0.912760
     1375.600000       0.910601
     1375.700000       0.908385
     1375.800000       0.906100
     1375.900000       0.903743
     1376.000000       0.901306
     1376.100000       0.898693
     1376.200000       0.895669
     1376.300000       0.892324
     1376.400000       0.888535
     1376.500000       0.885065
     1376.600000       0.882089
     1376.700000       0.878969
     1376.800000       0.875651
     1376.900000       0.872180
     1377.000000       0.868542
     1377.100000       0.864751
     1377.200000       0.860789
     1377.300000       0.856543
     1377.400000       0.852087
     1377.500000       0.847515
     1377.600000       0.842807
     1377.700000       0.837984
     1377.800000       0.833004
     1377.900000       0.827751
     1378.000000       0.822283
     1378.100000       0.816575
     1378.200000       0.810753
     1378.300000       0.804817
     1378.400000       0.798781
     1378.500000       0.792620
     1378.600000       0.786192
     1378.700000       0.779503
     1378.800000       0.772741
     1378.900000       0.765934
     1379.000000       0.758980
     1379.100000       0.751870
     1379.200000       0.744493
     1379.300000       0.737004
     1379.400000       0.729491
     1379.500000       0.721865
     1379.600000       0.714079
     1379.700000       0.706204
     1379.800000       0.698244
     1379.900000       0.690126
     1380.000000       0.681822
     1380.100000       0.673449
     1380.200000       0.665012
     1380.300000       0.656527
     1380.400000       0.648013
     1380.500000       0.639455
     1380.600000       0.630847
     1380.700000       0.622160
     1380.800000       0.613413
     1380.900000       0.604673
     1381.000000       0.595901
     1381.100000       0.587101
     1381.200000       0.578285
     1381.300000       0.569480
     1381.400000       0.560675
     1381.500000       0.551877
     1381.600000       0.543082
     1381.700000       0.534297
     1381.800000       0.525505
     1381.900000       0.516697
     1382.000000       0.507877
     1382.100000       0.499040
     1382.200000       0.490188
     1382.300000       0.481320
     1382.400000       0.472450
     1382.500000       0.463580
     1382.600000       0.454724
     1382.700000       0.445881
     1382.800000       0.437052
     1382.900000       0.428236
     1383.000000       0.419439
     1383.100000       0.410663
     1383.200000       0.401923
     1383.300000       0.393202
     1383.400000       0.384465
     1383.500000       0.375752
     1383.600000       0.367119
     1383.700000       0.358528
     1383.800000       0.349974
     1383.900000       0.341469
     1384.000000       0.333027
     1384.100000       0.324641
     1384.200000       0.316330
     1384.300000       0.308072
     1384.400000       0.299859
     1384.500000       0.291738
     1384.600000       0.283710
     1384.700000       0.275779
     1384.800000       0.267914
     1384.900000       0.260139
     1385.000000       0.252474
     1385.100000       0.244934
     1385.200000       0.237500
     1385.300000       0.230191
     1385.400000       0.222999
     1385.500000       0.215902
     1385.600000       0.208882
     1385.700000       0.201980
     1385.800000       0.195212
     1385.900000       0.188627
     1386.000000       0.182172
     1386.100000       0.175848
     1386.200000       0.169635
     1386.300000       0.163517
     1386.400000       0.157484
     1386.500000       0.151592
     1386.600000       0.145822
     1386.700000       0.140213
     1386.800000       0.134750
     1386.900000       0.129428
     1387.000000       0.124234
     1387.100000       0.119167
     1387.200000       0.114238
     1387.300000       0.109458
     1387.400000       0.104823
     1387.500000       0.100327
     1387.600000       0.095989
     1387.700000       0.091802
     1387.800000       0.087753
     1387.900000       0.083839
     1388.000000       0.080085
     1388.100000       0.076479
     1388.200000       0.073027
     1388.300000       0.069680
     1388.400000       0.066503
     1388.500000       0.063433
     1388.600000       0.060504
     1388.700000       0.057691
     1388.800000       0.055003
     1388.900000       0.052409
     1389.000000       0.049939
     1389.100000       0.047577
     1389.200000       0.045315
     1389.300000       0.043146
     1389.400000       0.041090
     1389.500000       0.039143
     1389.600000       0.037293
     1389.700000       0.035527
     1389.800000       0.033854
     1389.900000       0.032269
     1390.000000       0.030752
     1390.100000       0.029330
     1390.200000       0.028003
     1390.300000       0.026753
     1390.400000       0.025562
     1390.500000       0.024428
     1390.600000       0.023351
     1390.700000       0.022332
     1390.800000       0.021356
     1390.900000       0.020431
     1391.000000       0.019552
     1391.100000       0.018722
     1391.200000       0.017929
     1391.300000       0.017181
     1391.400000       0.016476
     1391.500000       0.015813
     1391.600000       0.015179
     1391.700000       0.014583
     1391.800000       0.014018
     1391.900000       0.013486
     1392.000000       0.012979
     1392.100000       0.012503
     1392.200000       0.012051
     1392.300000       0.011625
     1392.400000       0.011217
     1392.500000       0.010833
     1392.600000       0.010470
     1392.700000       0.010127
     1392.800000       0.009802
     1392.900000       0.009496
     1393.000000       0.009208
     1393.100000       0.008938
     1393.200000       0.008685
     1393.300000       0.008447
     1393.400000       0.008221
     1393.500000       0.008008
     1393.600000       0.007805
     1393.700000       0.007612
     1393.800000       0.007430
     1393.900000       0.007255
     1394.000000       0.007090
     1394.100000       0.006932
     1394.200000       0.006781
     1394.300000       0.006637
     1394.400000       0.006499
     1394.500000       0.006367
     1394.600000       0.006241
     1394.700000       0.006119
     1394.800000       0.006003
     1394.900000       0.005892
     1395.000000       0.005786
     1395.100000       0.005684
     1395.200000       0.005586
     1395.300000       0.005491
     1395.400000       0.005399
     1395.500000       0.005311
     1395.600000       0.005226
     1395.700000       0.005142
     1395.800000       0.005061
     1395.900000       0.004982
     1396.000000       0.004904
     1396.100000       0.004827
     1396.200000       0.004752
     1396.300000       0.004678
     1396.400000       0.004604
     1396.500000       0.004530
     1396.600000       0.004457
     1396.700000       0.004384
     1396.800000       0.004311
     1396.900000       0.004239
     1397.000000       0.004168
     1397.100000       0.004098
     1397.200000       0.004028
     1397.300000       0.003959
     1397.400000       0.003892
     1397.500000       0.003826
     1397.600000       0.003761
     1397.700000       0.003697
     1397.800000       0.003635
     1397.900000       0.003575
     1398.000000       0.003516
     1398.100000       0.003459
     1398.200000       0.003403
     1398.300000       0.003349
     1398.400000       0.003296
     1398.500000       0.003244
     1398.600000       0.003194
     1398.700000       0.003146
     1398.800000       0.003099
     1398.900000       0.003054
     1399.000000       0.003011
     1399.100000       0.002969
     1399.200000       0.002930
     1399.300000       0.002892
     1399.400000       0.002857
     1399.500000       0.002824
     1399.600000       0.002794
     1399.700000       0.002765
     1399.800000       0.002738
     1399.900000       0.002714
     1400.000000       0.002692
     1400.100000       0.002672
     1400.200000       0.002654
     1400.300000       0.002637
     1400.400000       0.002621
     1400.500000       0.002606
     1400.600000       0.002591
     1400.700000       0.002577
     1400.800000       0.002563
     1400.900000       0.002548
     1401.000000       0.002534
     1401.100000       0.002519
     1401.200000       0.002503
     1401.300000       0.002488
     1401.400000       0.002472
     1401.500000       0.002457
     1401.600000       0.002442
     1401.700000       0.002427
     1401.800000       0.002414
     1401.900000       0.002401
     1402.000000       0.002390
     1402.100000       0.002380
     1402.200000       0.002371
     1402.300000       0.002365
     1402.400000       0.002361
     1402.500000       0.002359
     1402.600000       0.002359
     1402.700000       0.002360
     1402.800000       0.002362
     1402.900000       0.002366
     1403.000000       0.002371
     1403.100000       0.002377
     1403.200000       0.002384
     1403.300000       0.002392
     1403.400000       0.002399
     1403.500000       0.002407
     1403.600000       0.002415
     1403.700000       0.002423
     1403.800000       0.002431
     1403.900000       0.002439
     1404.000000       0.002448
     1404.100000       0.002457
     1404.200000       0.002467
     1404.300000       0.002477
     1404.400000       0.002489
     1404.500000       0.002501
     1404.600000       0.002515
     1404.700000       0.002530
     1404.800000       0.002546
     1404.900000       0.002563
     1405.000000       0.002582
     1405.100000       0.002601
     1405.200000       0.002621
     1405.300000       0.002640
     1405.400000       0.002658
     1405.500000       0.002671
     1405.600000       0.002676
     1405.700000       0.002677
     1405.800000       0.002666
     1405.900000       0.002650
     1406.000000       0.002628
     1406.100000       0.002604
     1406.200000       0.002577
     1406.300000       0.002548
     1406.400000       0.002516
     1406.500000       0.002484
     1406.600000       0.002452
     1406.700000       0.002425
     1406.800000       0.002402
     1406.900000       0.002385
     1407.000000       0.002372
     1407.100000       0.002360
     1407.200000       0.002349
     1407.300000       0.002337
     1407.400000       0.002324
     1407.500000       0.002309
     1407.600000       0.002293
     1407.700000       0.002275
     1407.800000       0.002255
     1407.900000       0.002233
     1408.000000       0.002209
     1408.100000       0.002184
     1408.200000       0.002156
     1408.300000       0.002130
     1408.400000       0.002105
