   6  ,noaa_17_hirs_06.flt
Number of data points:
77
Wavenumber (cm-1)   Filter response
      705.500000       0.000000
      706.000000       0.001166
      708.120000       0.003924
      710.250000       0.006830
      712.370000       0.009802
      714.500000       0.012855
      714.800000       0.020225
      715.300000       0.022236
      715.800000       0.027504
      716.300000       0.032289
      716.800000       0.035800
      717.300000       0.040586
      717.800000       0.049963
      718.300000       0.063177
      718.800000       0.078532
      719.300000       0.095645
      719.800000       0.116370
      720.300000       0.139530
      720.800000       0.165130
      721.300000       0.196770
      721.800000       0.238050
      722.300000       0.285040
      722.800000       0.332680
      723.300000       0.379640
      723.800000       0.430200
      724.300000       0.485490
      724.800000       0.539990
      725.300000       0.592110
      725.800000       0.640620
      726.300000       0.684160
      726.800000       0.719480
      727.300000       0.752480
      727.800000       0.782600
      728.300000       0.807730
      728.800000       0.826220
      729.300000       0.841130
      729.800000       0.856930
      730.300000       0.873540
      730.800000       0.890130
      731.300000       0.902840
      731.800000       0.915930
      732.300000       0.932040
      732.800000       0.948550
      733.300000       0.964710
      733.800000       0.981040
      734.300000       0.993390
      734.800000       1.000000
      735.300000       0.999620
      735.800000       0.989570
      736.300000       0.961760
      736.800000       0.916940
      737.300000       0.860210
      737.800000       0.786100
      738.300000       0.695930
      738.800000       0.602360
      739.300000       0.513230
      739.800000       0.425930
      740.300000       0.346640
      740.800000       0.282260
      741.300000       0.229380
      741.800000       0.182230
      742.300000       0.143810
      742.800000       0.115150
      743.300000       0.092706
      743.800000       0.072968
      744.300000       0.057801
      744.800000       0.049714
      745.300000       0.042515
      745.800000       0.033549
      746.300000       0.023585
      746.800000       0.017032
      747.100000       0.015798
      749.230000       0.012411
      751.350000       0.008927
      753.480000       0.005344
      755.600000       0.001669
      756.000000       0.000000
