   7  ,noaa_19_hirs_07.flt
Number of data points:
399
Wavenumber (cm-1)   Filter response
      729.100000       0.000000
      729.200000       0.000081
      729.300000       0.000230
      729.400000       0.000379
      729.500000       0.000529
      729.600000       0.000681
      729.700000       0.000833
      729.800000       0.000989
      729.900000       0.001147
      730.000000       0.001313
      730.100000       0.001484
      730.200000       0.001658
      730.300000       0.001832
      730.400000       0.002010
      730.500000       0.002196
      730.600000       0.002383
      730.700000       0.002576
      730.800000       0.002781
      730.900000       0.002990
      731.000000       0.003200
      731.100000       0.003412
      731.200000       0.003627
      731.300000       0.003845
      731.400000       0.004076
      731.500000       0.004310
      731.600000       0.004551
      731.700000       0.004803
      731.800000       0.005061
      731.900000       0.005322
      732.000000       0.005584
      732.100000       0.005847
      732.200000       0.006111
      732.300000       0.006381
      732.400000       0.006653
      732.500000       0.006940
      732.600000       0.007240
      732.700000       0.007565
      732.800000       0.007893
      732.900000       0.008256
      733.000000       0.008637
      733.100000       0.009020
      733.200000       0.009411
      733.300000       0.009815
      733.400000       0.010222
      733.500000       0.010633
      733.600000       0.011047
      733.700000       0.011470
      733.800000       0.011915
      733.900000       0.012379
      734.000000       0.012846
      734.100000       0.013317
      734.200000       0.013805
      734.300000       0.014298
      734.400000       0.014804
      734.500000       0.015310
      734.600000       0.015818
      734.700000       0.016342
      734.800000       0.016973
      734.900000       0.017725
      735.000000       0.018552
      735.100000       0.019422
      735.200000       0.020348
      735.300000       0.021365
      735.400000       0.022499
      735.500000       0.023785
      735.600000       0.025206
      735.700000       0.026776
      735.800000       0.028491
      735.900000       0.030338
      736.000000       0.032244
      736.100000       0.034154
      736.200000       0.036080
      736.300000       0.038131
      736.400000       0.040344
      736.500000       0.042779
      736.600000       0.045441
      736.700000       0.048346
      736.800000       0.051468
      736.900000       0.054798
      737.000000       0.058379
      737.100000       0.062303
      737.200000       0.066603
      737.300000       0.071390
      737.400000       0.076693
      737.500000       0.082520
      737.600000       0.088909
      737.700000       0.095992
      737.800000       0.103827
      737.900000       0.112448
      738.000000       0.121875
      738.100000       0.132169
      738.200000       0.143354
      738.300000       0.155422
      738.400000       0.168405
      738.500000       0.182384
      738.600000       0.197412
      738.700000       0.213571
      738.800000       0.230901
      738.900000       0.249453
      739.000000       0.269235
      739.100000       0.290214
      739.200000       0.312301
      739.300000       0.335365
      739.400000       0.359297
      739.500000       0.384035
      739.600000       0.409477
      739.700000       0.435500
      739.800000       0.461936
      739.900000       0.488626
      740.000000       0.515396
      740.100000       0.542044
      740.200000       0.568414
      740.300000       0.594456
      740.400000       0.620003
      740.500000       0.644839
      740.600000       0.668761
      740.700000       0.691613
      740.800000       0.713206
      740.900000       0.733409
      741.000000       0.752099
      741.100000       0.769257
      741.200000       0.784756
      741.300000       0.798458
      741.400000       0.810290
      741.500000       0.820282
      741.600000       0.828436
      741.700000       0.834830
      741.800000       0.839528
      741.900000       0.842622
      742.000000       0.844196
      742.100000       0.844299
      742.200000       0.843081
      742.300000       0.840749
      742.400000       0.837466
      742.500000       0.833382
      742.600000       0.828652
      742.700000       0.823393
      742.800000       0.817761
      742.900000       0.811917
      743.000000       0.805970
      743.100000       0.799985
      743.200000       0.794039
      743.300000       0.788207
      743.400000       0.782554
      743.500000       0.777099
      743.600000       0.771942
      743.700000       0.767222
      743.800000       0.762989
      743.900000       0.759273
      744.000000       0.756112
      744.100000       0.753480
      744.200000       0.751426
      744.300000       0.749986
      744.400000       0.749184
      744.500000       0.749028
      744.600000       0.749491
      744.700000       0.750497
      744.800000       0.751999
      744.900000       0.754022
      745.000000       0.756595
      745.100000       0.759771
      745.200000       0.763548
      745.300000       0.767857
      745.400000       0.772632
      745.500000       0.777711
      745.600000       0.783057
      745.700000       0.788684
      745.800000       0.794597
      745.900000       0.800767
      746.000000       0.807173
      746.100000       0.813814
      746.200000       0.820661
      746.300000       0.827690
      746.400000       0.834850
      746.500000       0.842088
      746.600000       0.849354
      746.700000       0.856637
      746.800000       0.863888
      746.900000       0.871097
      747.000000       0.878255
      747.100000       0.885326
      747.200000       0.892299
      747.300000       0.899217
      747.400000       0.906094
      747.500000       0.912904
      747.600000       0.919643
      747.700000       0.926279
      747.800000       0.932783
      747.900000       0.939085
      748.000000       0.945134
      748.100000       0.950862
      748.200000       0.956283
      748.300000       0.961395
      748.400000       0.966215
      748.500000       0.970744
      748.600000       0.974983
      748.700000       0.978915
      748.800000       0.982545
      748.900000       0.985824
      749.000000       0.988772
      749.100000       0.991332
      749.200000       0.993479
      749.300000       0.995165
      749.400000       0.996436
      749.500000       0.997410
      749.600000       0.998160
      749.700000       0.998772
      749.800000       0.999279
      749.900000       0.999659
      750.000000       0.999893
      750.100000       1.000000
      750.200000       0.999992
      750.300000       0.999891
      750.400000       0.999668
      750.500000       0.999305
      750.600000       0.998810
      750.700000       0.998258
      750.800000       0.997678
      750.900000       0.997091
      751.000000       0.996502
      751.100000       0.995893
      751.200000       0.995245
      751.300000       0.994510
      751.400000       0.993663
      751.500000       0.992799
      751.600000       0.991956
      751.700000       0.991060
      751.800000       0.990055
      751.900000       0.988926
      752.000000       0.987677
      752.100000       0.986359
      752.200000       0.985031
      752.300000       0.983709
      752.400000       0.982397
      752.500000       0.980992
      752.600000       0.979443
      752.700000       0.977688
      752.800000       0.975698
      752.900000       0.973515
      753.000000       0.971136
      753.100000       0.968571
      753.200000       0.965795
      753.300000       0.962782
      753.400000       0.959512
      753.500000       0.955911
      753.600000       0.951894
      753.700000       0.947451
      753.800000       0.942566
      753.900000       0.937257
      754.000000       0.931523
      754.100000       0.925411
      754.200000       0.918952
      754.300000       0.912018
      754.400000       0.904513
      754.500000       0.896470
      754.600000       0.887890
      754.700000       0.878754
      754.800000       0.869071
      754.900000       0.858938
      755.000000       0.848338
      755.100000       0.837212
      755.200000       0.825550
      755.300000       0.813464
      755.400000       0.801013
      755.500000       0.788210
      755.600000       0.775033
      755.700000       0.761489
      755.800000       0.747568
      755.900000       0.733304
      756.000000       0.718685
      756.100000       0.703730
      756.200000       0.688481
      756.300000       0.673017
      756.400000       0.657361
      756.500000       0.641589
      756.600000       0.625735
      756.700000       0.609849
      756.800000       0.593900
      756.900000       0.577847
      757.000000       0.561681
      757.100000       0.545503
      757.200000       0.529336
      757.300000       0.513308
      757.400000       0.497483
      757.500000       0.481966
      757.600000       0.466722
      757.700000       0.451682
      757.800000       0.436828
      757.900000       0.422246
      758.000000       0.407894
      758.100000       0.393766
      758.200000       0.379849
      758.300000       0.366135
      758.400000       0.352578
      758.500000       0.339256
      758.600000       0.326207
      758.700000       0.313521
      758.800000       0.301172
      758.900000       0.289096
      759.000000       0.277242
      759.100000       0.265639
      759.200000       0.254263
      759.300000       0.243148
      759.400000       0.232277
      759.500000       0.221780
      759.600000       0.211695
      759.700000       0.202111
      759.800000       0.193041
      759.900000       0.184464
      760.000000       0.176349
      760.100000       0.168600
      760.200000       0.161155
      760.300000       0.153984
      760.400000       0.147052
      760.500000       0.140351
      760.600000       0.133856
      760.700000       0.127679
      760.800000       0.121877
      760.900000       0.116407
      761.000000       0.111225
      761.100000       0.106310
      761.200000       0.101624
      761.300000       0.097029
      761.400000       0.092414
      761.500000       0.087831
      761.600000       0.083297
      761.700000       0.078865
      761.800000       0.074599
      761.900000       0.070591
      762.000000       0.066866
      762.100000       0.063378
      762.200000       0.060085
      762.300000       0.056976
      762.400000       0.054040
      762.500000       0.051265
      762.600000       0.048614
      762.700000       0.046065
      762.800000       0.043605
      762.900000       0.041343
      763.000000       0.039322
      763.100000       0.037585
      763.200000       0.036128
      763.300000       0.034887
      763.400000       0.033832
      763.500000       0.032820
      763.600000       0.031767
      763.700000       0.030645
      763.800000       0.029442
      763.900000       0.028073
      764.000000       0.026516
      764.100000       0.024937
      764.200000       0.023440
      764.300000       0.022108
      764.400000       0.021077
      764.500000       0.020320
      764.600000       0.019620
      764.700000       0.018928
      764.800000       0.018257
      764.900000       0.017599
      765.000000       0.016951
      765.100000       0.016306
      765.200000       0.015662
      765.300000       0.015038
      765.400000       0.014416
      765.500000       0.013797
      765.600000       0.013201
      765.700000       0.012614
      765.800000       0.012031
      765.900000       0.011451
      766.000000       0.010895
      766.100000       0.010340
      766.200000       0.009792
      766.300000       0.009254
      766.400000       0.008721
      766.500000       0.008189
      766.600000       0.007661
      766.700000       0.007135
      766.800000       0.006609
      766.900000       0.006114
      767.000000       0.005667
      767.100000       0.005227
      767.200000       0.004801
      767.300000       0.004409
      767.400000       0.004022
      767.500000       0.003670
      767.600000       0.003339
      767.700000       0.003031
      767.800000       0.002741
      767.900000       0.002454
      768.000000       0.002182
      768.100000       0.001911
      768.200000       0.001641
      768.300000       0.001373
      768.400000       0.001118
      768.500000       0.000884
      768.600000       0.000651
      768.700000       0.000427
      768.800000       0.000205
      768.900000       0.000000
