  19  ,noaa_12_hirs_19.flt
Number of data points:
102
Wavenumber (cm-1)   Filter response
     2501.300000       0.000000
     2504.300000       0.001671
     2507.300000       0.001642
     2510.400000       0.001611
     2513.400000       0.001580
     2516.400000       0.004371
     2519.400000       0.004339
     2522.400000       0.006625
     2525.400000       0.006592
     2528.400000       0.008544
     2531.400000       0.008839
     2534.400000       0.010454
     2537.400000       0.011243
     2540.400000       0.011204
     2543.500000       0.012451
     2546.400000       0.013322
     2549.400000       0.014188
     2552.400000       0.014074
     2555.400000       0.016262
     2558.400000       0.019923
     2561.400000       0.024726
     2564.400000       0.029687
     2567.400000       0.036448
     2570.300000       0.044219
     2573.300000       0.058874
     2576.300000       0.074521
     2579.300000       0.091489
     2582.300000       0.117860
     2585.300000       0.149790
     2588.300000       0.181220
     2591.200000       0.223350
     2594.200000       0.278630
     2597.200000       0.351730
     2600.100000       0.416480
     2603.100000       0.495230
     2606.000000       0.587160
     2609.000000       0.657320
     2611.900000       0.724250
     2614.800000       0.770080
     2617.800000       0.815550
     2620.600000       0.856660
     2623.600000       0.873440
     2626.600000       0.889230
     2629.700000       0.900500
     2632.700000       0.900480
     2635.700000       0.893030
     2638.800000       0.882490
     2641.800000       0.866890
     2644.900000       0.851690
     2648.000000       0.834000
     2651.100000       0.816890
     2654.100000       0.801670
     2657.200000       0.786360
     2660.200000       0.777920
     2663.200000       0.772740
     2666.200000       0.772700
     2669.200000       0.781050
     2672.300000       0.793250
     2675.300000       0.817070
     2678.300000       0.846550
     2681.400000       0.894670
     2684.400000       0.937850
     2687.500000       0.975560
     2692.000000       1.000000
     2693.500000       0.979560
     2696.600000       0.908540
     2699.700000       0.785140
     2702.600000       0.643230
     2705.600000       0.503540
     2708.500000       0.366030
     2711.400000       0.268840
     2714.300000       0.206970
     2717.300000       0.155570
     2720.000000       0.113270
     2723.000000       0.084686
     2725.900000       0.064647
     2728.900000       0.048628
     2731.800000       0.035168
     2734.700000       0.028191
     2737.600000       0.023800
     2740.700000       0.021166
     2743.700000       0.018414
     2746.700000       0.015685
     2749.700000       0.013797
     2752.700000       0.012610
     2755.700000       0.011140
     2758.700000       0.010796
     2761.700000       0.009466
     2764.700000       0.008418
     2767.700000       0.008356
     2770.700000       0.007162
     2773.700000       0.006099
     2776.700000       0.005176
     2779.700000       0.003548
     2782.700000       0.001875
     2785.700000       0.001870
     2788.700000       0.000880
     2791.700000       0.000875
     2794.700000       0.000028
     2797.700000       0.000025
     2800.700000       0.000033
     2820.600000       0.000000
