10 , goes_08_sounder_10.flt
Number of data points:
1700
Wavenumber (cm-1)   Filter response
     1259.200000       0.000609
     1259.300000       0.000639
     1259.400000       0.000668
     1259.500000       0.000698
     1259.600000       0.000727
     1259.700000       0.000757
     1259.800000       0.000787
     1259.900000       0.000816
     1260.000000       0.000846
     1260.100000       0.000876
     1260.200000       0.000905
     1260.300000       0.000935
     1260.400000       0.000965
     1260.500000       0.000995
     1260.600000       0.001024
     1260.700000       0.001054
     1260.800000       0.001084
     1260.900000       0.001114
     1261.000000       0.001143
     1261.100000       0.001173
     1261.200000       0.001203
     1261.300000       0.001233
     1261.400000       0.001263
     1261.500000       0.001292
     1261.600000       0.001322
     1261.700000       0.001352
     1261.800000       0.001382
     1261.900000       0.001411
     1262.000000       0.001441
     1262.100000       0.001470
     1262.200000       0.001500
     1262.300000       0.001530
     1262.400000       0.001559
     1262.500000       0.001589
     1262.600000       0.001618
     1262.700000       0.001648
     1262.800000       0.001677
     1262.900000       0.001706
     1263.000000       0.001736
     1263.100000       0.001765
     1263.200000       0.001794
     1263.300000       0.001823
     1263.400000       0.001852
     1263.500000       0.001881
     1263.600000       0.001910
     1263.700000       0.001939
     1263.800000       0.001968
     1263.900000       0.001997
     1264.000000       0.002025
     1264.100000       0.002054
     1264.200000       0.002082
     1264.300000       0.002111
     1264.400000       0.002139
     1264.500000       0.002168
     1264.600000       0.002196
     1264.700000       0.002224
     1264.800000       0.002252
     1264.900000       0.002280
     1265.000000       0.002308
     1265.100000       0.002335
     1265.200000       0.002363
     1265.300000       0.002391
     1265.400000       0.002418
     1265.500000       0.002445
     1265.600000       0.002473
     1265.700000       0.002500
     1265.800000       0.002527
     1265.900000       0.002553
     1266.000000       0.002580
     1266.100000       0.002607
     1266.200000       0.002633
     1266.300000       0.002659
     1266.400000       0.002686
     1266.500000       0.002712
     1266.600000       0.002737
     1266.700000       0.002763
     1266.800000       0.002789
     1266.900000       0.002814
     1267.000000       0.002839
     1267.100000       0.002864
     1267.200000       0.002889
     1267.300000       0.002914
     1267.400000       0.002939
     1267.500000       0.002963
     1267.600000       0.002987
     1267.700000       0.003011
     1267.800000       0.003035
     1267.900000       0.003059
     1268.000000       0.003082
     1268.100000       0.003105
     1268.200000       0.003128
     1268.300000       0.003151
     1268.400000       0.003174
     1268.500000       0.003196
     1268.600000       0.003218
     1268.700000       0.003240
     1268.800000       0.003262
     1268.900000       0.003284
     1269.000000       0.003305
     1269.100000       0.003326
     1269.200000       0.003348
     1269.300000       0.003368
     1269.400000       0.003389
     1269.500000       0.003410
     1269.600000       0.003430
     1269.700000       0.003451
     1269.800000       0.003471
     1269.900000       0.003491
     1270.000000       0.003511
     1270.100000       0.003531
     1270.200000       0.003551
     1270.300000       0.003570
     1270.400000       0.003590
     1270.500000       0.003610
     1270.600000       0.003629
     1270.700000       0.003649
     1270.800000       0.003668
     1270.900000       0.003687
     1271.000000       0.003707
     1271.100000       0.003726
     1271.200000       0.003745
     1271.300000       0.003765
     1271.400000       0.003784
     1271.500000       0.003803
     1271.600000       0.003822
     1271.700000       0.003842
     1271.800000       0.003861
     1271.900000       0.003881
     1272.000000       0.003900
     1272.100000       0.003920
     1272.200000       0.003939
     1272.300000       0.003959
     1272.400000       0.003979
     1272.500000       0.003998
     1272.600000       0.004018
     1272.700000       0.004038
     1272.800000       0.004059
     1272.900000       0.004079
     1273.000000       0.004099
     1273.100000       0.004120
     1273.200000       0.004141
     1273.300000       0.004162
     1273.400000       0.004183
     1273.500000       0.004204
     1273.600000       0.004225
     1273.700000       0.004247
     1273.800000       0.004269
     1273.900000       0.004291
     1274.000000       0.004313
     1274.100000       0.004335
     1274.200000       0.004358
     1274.300000       0.004381
     1274.400000       0.004404
     1274.500000       0.004427
     1274.600000       0.004451
     1274.700000       0.004475
     1274.800000       0.004499
     1274.900000       0.004524
     1275.000000       0.004548
     1275.100000       0.004574
     1275.200000       0.004599
     1275.300000       0.004625
     1275.400000       0.004651
     1275.500000       0.004677
     1275.600000       0.004704
     1275.700000       0.004731
     1275.800000       0.004759
     1275.900000       0.004787
     1276.000000       0.004815
     1276.100000       0.004844
     1276.200000       0.004873
     1276.300000       0.004903
     1276.400000       0.004933
     1276.500000       0.004963
     1276.600000       0.004994
     1276.700000       0.005025
     1276.800000       0.005057
     1276.900000       0.005089
     1277.000000       0.005122
     1277.100000       0.005155
     1277.200000       0.005189
     1277.300000       0.005223
     1277.400000       0.005258
     1277.500000       0.005293
     1277.600000       0.005329
     1277.700000       0.005366
     1277.800000       0.005403
     1277.900000       0.005440
     1278.000000       0.005478
     1278.100000       0.005517
     1278.200000       0.005556
     1278.300000       0.005596
     1278.400000       0.005636
     1278.500000       0.005677
     1278.600000       0.005719
     1278.700000       0.005761
     1278.800000       0.005804
     1278.900000       0.005848
     1279.000000       0.005892
     1279.100000       0.005937
     1279.200000       0.005982
     1279.300000       0.006028
     1279.400000       0.006075
     1279.500000       0.006122
     1279.600000       0.006170
     1279.700000       0.006218
     1279.800000       0.006267
     1279.900000       0.006316
     1280.000000       0.006366
     1280.100000       0.006417
     1280.200000       0.006468
     1280.300000       0.006520
     1280.400000       0.006572
     1280.500000       0.006625
     1280.600000       0.006678
     1280.700000       0.006732
     1280.800000       0.006786
     1280.900000       0.006841
     1281.000000       0.006896
     1281.100000       0.006952
     1281.200000       0.007008
     1281.300000       0.007065
     1281.400000       0.007122
     1281.500000       0.007180
     1281.600000       0.007238
     1281.700000       0.007297
     1281.800000       0.007356
     1281.900000       0.007415
     1282.000000       0.007475
     1282.100000       0.007535
     1282.200000       0.007596
     1282.300000       0.007657
     1282.400000       0.007719
     1282.500000       0.007781
     1282.600000       0.007843
     1282.700000       0.007906
     1282.800000       0.007969
     1282.900000       0.008032
     1283.000000       0.008096
     1283.100000       0.008160
     1283.200000       0.008225
     1283.300000       0.008290
     1283.400000       0.008355
     1283.500000       0.008420
     1283.600000       0.008486
     1283.700000       0.008552
     1283.800000       0.008619
     1283.900000       0.008686
     1284.000000       0.008752
     1284.100000       0.008820
     1284.200000       0.008887
     1284.300000       0.008955
     1284.400000       0.009023
     1284.500000       0.009091
     1284.600000       0.009160
     1284.700000       0.009229
     1284.800000       0.009298
     1284.900000       0.009367
     1285.000000       0.009436
     1285.100000       0.009506
     1285.200000       0.009576
     1285.300000       0.009646
     1285.400000       0.009716
     1285.500000       0.009786
     1285.600000       0.009857
     1285.700000       0.009927
     1285.800000       0.009998
     1285.900000       0.010069
     1286.000000       0.010140
     1286.100000       0.010211
     1286.200000       0.010283
     1286.300000       0.010354
     1286.400000       0.010425
     1286.500000       0.010497
     1286.600000       0.010569
     1286.700000       0.010640
     1286.800000       0.010712
     1286.900000       0.010784
     1287.000000       0.010856
     1287.100000       0.010928
     1287.200000       0.010999
     1287.300000       0.011071
     1287.400000       0.011143
     1287.500000       0.011215
     1287.600000       0.011287
     1287.700000       0.011359
     1287.800000       0.011431
     1287.900000       0.011503
     1288.000000       0.011575
     1288.100000       0.011647
     1288.200000       0.011718
     1288.300000       0.011790
     1288.400000       0.011862
     1288.500000       0.011933
     1288.600000       0.012005
     1288.700000       0.012076
     1288.800000       0.012148
     1288.900000       0.012220
     1289.000000       0.012293
     1289.100000       0.012366
     1289.200000       0.012440
     1289.300000       0.012516
     1289.400000       0.012592
     1289.500000       0.012670
     1289.600000       0.012749
     1289.700000       0.012830
     1289.800000       0.012913
     1289.900000       0.012998
     1290.000000       0.013085
     1290.100000       0.013175
     1290.200000       0.013267
     1290.300000       0.013361
     1290.400000       0.013459
     1290.500000       0.013560
     1290.600000       0.013663
     1290.700000       0.013770
     1290.800000       0.013881
     1290.900000       0.013996
     1291.000000       0.014114
     1291.100000       0.014236
     1291.200000       0.014362
     1291.300000       0.014493
     1291.400000       0.014628
     1291.500000       0.014768
     1291.600000       0.014913
     1291.700000       0.015063
     1291.800000       0.015218
     1291.900000       0.015378
     1292.000000       0.015543
     1292.100000       0.015715
     1292.200000       0.015892
     1292.300000       0.016076
     1292.400000       0.016265
     1292.500000       0.016461
     1292.600000       0.016663
     1292.700000       0.016872
     1292.800000       0.017089
     1292.900000       0.017312
     1293.000000       0.017541
     1293.100000       0.017778
     1293.200000       0.018023
     1293.300000       0.018277
     1293.400000       0.018537
     1293.500000       0.018805
     1293.600000       0.019081
     1293.700000       0.019366
     1293.800000       0.019660
     1293.900000       0.019962
     1294.000000       0.020273
     1294.100000       0.020592
     1294.200000       0.020921
     1294.300000       0.021259
     1294.400000       0.021604
     1294.500000       0.021958
     1294.600000       0.022320
     1294.700000       0.022691
     1294.800000       0.023069
     1294.900000       0.023455
     1295.000000       0.023848
     1295.100000       0.024249
     1295.200000       0.024657
     1295.300000       0.025073
     1295.400000       0.025495
     1295.500000       0.025923
     1295.600000       0.026358
     1295.700000       0.026800
     1295.800000       0.027249
     1295.900000       0.027703
     1296.000000       0.028163
     1296.100000       0.028629
     1296.200000       0.029100
     1296.300000       0.029578
     1296.400000       0.030060
     1296.500000       0.030548
     1296.600000       0.031040
     1296.700000       0.031537
     1296.800000       0.032040
     1296.900000       0.032547
     1297.000000       0.033058
     1297.100000       0.033573
     1297.200000       0.034092
     1297.300000       0.034615
     1297.400000       0.035142
     1297.500000       0.035672
     1297.600000       0.036206
     1297.700000       0.036743
     1297.800000       0.037283
     1297.900000       0.037826
     1298.000000       0.038371
     1298.100000       0.038919
     1298.200000       0.039469
     1298.300000       0.040023
     1298.400000       0.040578
     1298.500000       0.041134
     1298.600000       0.041692
     1298.700000       0.042253
     1298.800000       0.042819
     1298.900000       0.043386
     1299.000000       0.043957
     1299.100000       0.044533
     1299.200000       0.045113
     1299.300000       0.045700
     1299.400000       0.046292
     1299.500000       0.046890
     1299.600000       0.047495
     1299.700000       0.048107
     1299.800000       0.048728
     1299.900000       0.049356
     1300.000000       0.049992
     1300.100000       0.050638
     1300.200000       0.051293
     1300.300000       0.051960
     1300.400000       0.052636
     1300.500000       0.053322
     1300.600000       0.054020
     1300.700000       0.054732
     1300.800000       0.055456
     1300.900000       0.056192
     1301.000000       0.056940
     1301.100000       0.057703
     1301.200000       0.058482
     1301.300000       0.059276
     1301.400000       0.060084
     1301.500000       0.060906
     1301.600000       0.061745
     1301.700000       0.062603
     1301.800000       0.063479
     1301.900000       0.064370
     1302.000000       0.065280
     1302.100000       0.066208
     1302.200000       0.067155
     1302.300000       0.068124
     1302.400000       0.069110
     1302.500000       0.070118
     1302.600000       0.071147
     1302.700000       0.072197
     1302.800000       0.073270
     1302.900000       0.074364
     1303.000000       0.075481
     1303.100000       0.076622
     1303.200000       0.077787
     1303.300000       0.078977
     1303.400000       0.080189
     1303.500000       0.081428
     1303.600000       0.082692
     1303.700000       0.083983
     1303.800000       0.085302
     1303.900000       0.086646
     1304.000000       0.088017
     1304.100000       0.089415
     1304.200000       0.090843
     1304.300000       0.092302
     1304.400000       0.093788
     1304.500000       0.095304
     1304.600000       0.096849
     1304.700000       0.098425
     1304.800000       0.100034
     1304.900000       0.101675
     1305.000000       0.103347
     1305.100000       0.105051
     1305.200000       0.106786
     1305.300000       0.108558
     1305.400000       0.110364
     1305.500000       0.112205
     1305.600000       0.114080
     1305.700000       0.115991
     1305.800000       0.117943
     1305.900000       0.119933
     1306.000000       0.121963
     1306.100000       0.124032
     1306.200000       0.126143
     1306.300000       0.128299
     1306.400000       0.130496
     1306.500000       0.132735
     1306.600000       0.135020
     1306.700000       0.137352
     1306.800000       0.139737
     1306.900000       0.142166
     1307.000000       0.144640
     1307.100000       0.147164
     1307.200000       0.149742
     1307.300000       0.152378
     1307.400000       0.155061
     1307.500000       0.157795
     1307.600000       0.160583
     1307.700000       0.163430
     1307.800000       0.166341
     1307.900000       0.169303
     1308.000000       0.172320
     1308.100000       0.175400
     1308.200000       0.178542
     1308.300000       0.181749
     1308.400000       0.185013
     1308.500000       0.188339
     1308.600000       0.191734
     1308.700000       0.195198
     1308.800000       0.198737
     1308.900000       0.202341
     1309.000000       0.206018
     1309.100000       0.209779
     1309.200000       0.213624
     1309.300000       0.217557
     1309.400000       0.221565
     1309.500000       0.225654
     1309.600000       0.229833
     1309.700000       0.234099
     1309.800000       0.238450
     1309.900000       0.242865
     1310.000000       0.247351
     1310.100000       0.251914
     1310.200000       0.256556
     1310.300000       0.261272
     1310.400000       0.266045
     1310.500000       0.270880
     1310.600000       0.275779
     1310.700000       0.280741
     1310.800000       0.285767
     1310.900000       0.290841
     1311.000000       0.295974
     1311.100000       0.301161
     1311.200000       0.306399
     1311.300000       0.311689
     1311.400000       0.317018
     1311.500000       0.322395
     1311.600000       0.327817
     1311.700000       0.333282
     1311.800000       0.338792
     1311.900000       0.344337
     1312.000000       0.349929
     1312.100000       0.355567
     1312.200000       0.361250
     1312.300000       0.366985
     1312.400000       0.372758
     1312.500000       0.378574
     1312.600000       0.384436
     1312.700000       0.390347
     1312.800000       0.396314
     1312.900000       0.402321
     1313.000000       0.408374
     1313.100000       0.414473
     1313.200000       0.420619
     1313.300000       0.426824
     1313.400000       0.433078
     1313.500000       0.439380
     1313.600000       0.445727
     1313.700000       0.452119
     1313.800000       0.458569
     1313.900000       0.465066
     1314.000000       0.471611
     1314.100000       0.478197
     1314.200000       0.484826
     1314.300000       0.491509
     1314.400000       0.498235
     1314.500000       0.505006
     1314.600000       0.511818
     1314.700000       0.518672
     1314.800000       0.525578
     1314.900000       0.532517
     1315.000000       0.539492
     1315.100000       0.546505
     1315.200000       0.553566
     1315.300000       0.560688
     1315.400000       0.567845
     1315.500000       0.575046
     1315.600000       0.582302
     1315.700000       0.589622
     1315.800000       0.597021
     1315.900000       0.604472
     1316.000000       0.611982
     1316.100000       0.619563
     1316.200000       0.627225
     1316.300000       0.634985
     1316.400000       0.642810
     1316.500000       0.650711
     1316.600000       0.658705
     1316.700000       0.666778
     1316.800000       0.674914
     1316.900000       0.683064
     1317.000000       0.691217
     1317.100000       0.699357
     1317.200000       0.707462
     1317.300000       0.715516
     1317.400000       0.723468
     1317.500000       0.731305
     1317.600000       0.739023
     1317.700000       0.746602
     1317.800000       0.754010
     1317.900000       0.761203
     1318.000000       0.768168
     1318.100000       0.774919
     1318.200000       0.781456
     1318.300000       0.787780
     1318.400000       0.793878
     1318.500000       0.799761
     1318.600000       0.805452
     1318.700000       0.810957
     1318.800000       0.816275
     1318.900000       0.821400
     1319.000000       0.826341
     1319.100000       0.831114
     1319.200000       0.835722
     1319.300000       0.840172
     1319.400000       0.844459
     1319.500000       0.848597
     1319.600000       0.852594
     1319.700000       0.856450
     1319.800000       0.860177
     1319.900000       0.863771
     1320.000000       0.867243
     1320.100000       0.870601
     1320.200000       0.873847
     1320.300000       0.876992
     1320.400000       0.880031
     1320.500000       0.882971
     1320.600000       0.885813
     1320.700000       0.888552
     1320.800000       0.891193
     1320.900000       0.893727
     1321.000000       0.896154
     1321.100000       0.898477
     1321.200000       0.900690
     1321.300000       0.902800
     1321.400000       0.904795
     1321.500000       0.906678
     1321.600000       0.908447
     1321.700000       0.910100
     1321.800000       0.911640
     1321.900000       0.913060
     1322.000000       0.914363
     1322.100000       0.915545
     1322.200000       0.916603
     1322.300000       0.917540
     1322.400000       0.918349
     1322.500000       0.919032
     1322.600000       0.919592
     1322.700000       0.920036
     1322.800000       0.920376
     1322.900000       0.920618
     1323.000000       0.920776
     1323.100000       0.920859
     1323.200000       0.920876
     1323.300000       0.920837
     1323.400000       0.920752
     1323.500000       0.920630
     1323.600000       0.920479
     1323.700000       0.920300
     1323.800000       0.920091
     1323.900000       0.919855
     1324.000000       0.919589
     1324.100000       0.919296
     1324.200000       0.918973
     1324.300000       0.918620
     1324.400000       0.918238
     1324.500000       0.917828
     1324.600000       0.917389
     1324.700000       0.916920
     1324.800000       0.916420
     1324.900000       0.915894
     1325.000000       0.915338
     1325.100000       0.914752
     1325.200000       0.914137
     1325.300000       0.913490
     1325.400000       0.912816
     1325.500000       0.912113
     1325.600000       0.911380
     1325.700000       0.910616
     1325.800000       0.909822
     1325.900000       0.909004
     1326.000000       0.908162
     1326.100000       0.907297
     1326.200000       0.906412
     1326.300000       0.905511
     1326.400000       0.904601
     1326.500000       0.903684
     1326.600000       0.902757
     1326.700000       0.901826
     1326.800000       0.900894
     1326.900000       0.899968
     1327.000000       0.899049
     1327.100000       0.898136
     1327.200000       0.897233
     1327.300000       0.896344
     1327.400000       0.895475
     1327.500000       0.894627
     1327.600000       0.893803
     1327.700000       0.893005
     1327.800000       0.892236
     1327.900000       0.891501
     1328.000000       0.890803
     1328.100000       0.890144
     1328.200000       0.889528
     1328.300000       0.888954
     1328.400000       0.888424
     1328.500000       0.887935
     1328.600000       0.887485
     1328.700000       0.887073
     1328.800000       0.886697
     1328.900000       0.886354
     1329.000000       0.886044
     1329.100000       0.885764
     1329.200000       0.885513
     1329.300000       0.885289
     1329.400000       0.885092
     1329.500000       0.884920
     1329.600000       0.884771
     1329.700000       0.884645
     1329.800000       0.884540
     1329.900000       0.884457
     1330.000000       0.884392
     1330.100000       0.884346
     1330.200000       0.884316
     1330.300000       0.884302
     1330.400000       0.884303
     1330.500000       0.884318
     1330.600000       0.884350
     1330.700000       0.884401
     1330.800000       0.884475
     1330.900000       0.884574
     1331.000000       0.884698
     1331.100000       0.884851
     1331.200000       0.885035
     1331.300000       0.885254
     1331.400000       0.885509
     1331.500000       0.885801
     1331.600000       0.886135
     1331.700000       0.886512
     1331.800000       0.886935
     1331.900000       0.887406
     1332.000000       0.887926
     1332.100000       0.888499
     1332.200000       0.889128
     1332.300000       0.889816
     1332.400000       0.890562
     1332.500000       0.891369
     1332.600000       0.892241
     1332.700000       0.893177
     1332.800000       0.894176
     1332.900000       0.895234
     1333.000000       0.896349
     1333.100000       0.897521
     1333.200000       0.898748
     1333.300000       0.900032
     1333.400000       0.901364
     1333.500000       0.902745
     1333.600000       0.904175
     1333.700000       0.905652
     1333.800000       0.907176
     1333.900000       0.908740
     1334.000000       0.910345
     1334.100000       0.911991
     1334.200000       0.913674
     1334.300000       0.915397
     1334.400000       0.917151
     1334.500000       0.918936
     1334.600000       0.920753
     1334.700000       0.922598
     1334.800000       0.924469
     1334.900000       0.926355
     1335.000000       0.928255
     1335.100000       0.930171
     1335.200000       0.932102
     1335.300000       0.934040
     1335.400000       0.935979
     1335.500000       0.937915
     1335.600000       0.939851
     1335.700000       0.941786
     1335.800000       0.943715
     1335.900000       0.945632
     1336.000000       0.947537
     1336.100000       0.949433
     1336.200000       0.951317
     1336.300000       0.953191
     1336.400000       0.955049
     1336.500000       0.956889
     1336.600000       0.958714
     1336.700000       0.960522
     1336.800000       0.962315
     1336.900000       0.964085
     1337.000000       0.965835
     1337.100000       0.967566
     1337.200000       0.969274
     1337.300000       0.970960
     1337.400000       0.972618
     1337.500000       0.974253
     1337.600000       0.975862
     1337.700000       0.977443
     1337.800000       0.978997
     1337.900000       0.980520
     1338.000000       0.982008
     1338.100000       0.983460
     1338.200000       0.984873
     1338.300000       0.986243
     1338.400000       0.987564
     1338.500000       0.988833
     1338.600000       0.990045
     1338.700000       0.991198
     1338.800000       0.992290
     1338.900000       0.993316
     1339.000000       0.994275
     1339.100000       0.995165
     1339.200000       0.995983
     1339.300000       0.996731
     1339.400000       0.997406
     1339.500000       0.998006
     1339.600000       0.998529
     1339.700000       0.998974
     1339.800000       0.999342
     1339.900000       0.999628
     1340.000000       0.999833
     1340.100000       0.999955
     1340.200000       1.000000
     1340.300000       0.999972
     1340.400000       0.999875
     1340.500000       0.999715
     1340.600000       0.999498
     1340.700000       0.999228
     1340.800000       0.998911
     1340.900000       0.998550
     1341.000000       0.998153
     1341.100000       0.997722
     1341.200000       0.997264
     1341.300000       0.996783
     1341.400000       0.996285
     1341.500000       0.995774
     1341.600000       0.995256
     1341.700000       0.994736
     1341.800000       0.994217
     1341.900000       0.993704
     1342.000000       0.993201
     1342.100000       0.992715
     1342.200000       0.992247
     1342.300000       0.991795
     1342.400000       0.991357
     1342.500000       0.990923
     1342.600000       0.990487
     1342.700000       0.990042
     1342.800000       0.989578
     1342.900000       0.989091
     1343.000000       0.988571
     1343.100000       0.988011
     1343.200000       0.987405
     1343.300000       0.986742
     1343.400000       0.986019
     1343.500000       0.985227
     1343.600000       0.984359
     1343.700000       0.983405
     1343.800000       0.982358
     1343.900000       0.981214
     1344.000000       0.979966
     1344.100000       0.978618
     1344.200000       0.977177
     1344.300000       0.975652
     1344.400000       0.974060
     1344.500000       0.972410
     1344.600000       0.970711
     1344.700000       0.968970
     1344.800000       0.967199
     1344.900000       0.965411
     1345.000000       0.963617
     1345.100000       0.961823
     1345.200000       0.960040
     1345.300000       0.958279
     1345.400000       0.956552
     1345.500000       0.954859
     1345.600000       0.953196
     1345.700000       0.951563
     1345.800000       0.949955
     1345.900000       0.948372
     1346.000000       0.946812
     1346.100000       0.945269
     1346.200000       0.943742
     1346.300000       0.942226
     1346.400000       0.940724
     1346.500000       0.939231
     1346.600000       0.937742
     1346.700000       0.936257
     1346.800000       0.934770
     1346.900000       0.933283
     1347.000000       0.931791
     1347.100000       0.930293
     1347.200000       0.928786
     1347.300000       0.927266
     1347.400000       0.925730
     1347.500000       0.924178
     1347.600000       0.922607
     1347.700000       0.921016
     1347.800000       0.919399
     1347.900000       0.917757
     1348.000000       0.916089
     1348.100000       0.914394
     1348.200000       0.912674
     1348.300000       0.910928
     1348.400000       0.909160
     1348.500000       0.907373
     1348.600000       0.905568
     1348.700000       0.903747
     1348.800000       0.901909
     1348.900000       0.900061
     1349.000000       0.898201
     1349.100000       0.896332
     1349.200000       0.894456
     1349.300000       0.892572
     1349.400000       0.890687
     1349.500000       0.888800
     1349.600000       0.886913
     1349.700000       0.885026
     1349.800000       0.883139
     1349.900000       0.881259
     1350.000000       0.879388
     1350.100000       0.877525
     1350.200000       0.875671
     1350.300000       0.873825
     1350.400000       0.871995
     1350.500000       0.870182
     1350.600000       0.868385
     1350.700000       0.866604
     1350.800000       0.864841
     1350.900000       0.863102
     1351.000000       0.861387
     1351.100000       0.859697
     1351.200000       0.858030
     1351.300000       0.856389
     1351.400000       0.854776
     1351.500000       0.853189
     1351.600000       0.851625
     1351.700000       0.850082
     1351.800000       0.848561
     1351.900000       0.847065
     1352.000000       0.845590
     1352.100000       0.844134
     1352.200000       0.842696
     1352.300000       0.841276
     1352.400000       0.839875
     1352.500000       0.838492
     1352.600000       0.837122
     1352.700000       0.835767
     1352.800000       0.834422
     1352.900000       0.833091
     1353.000000       0.831770
     1353.100000       0.830460
     1353.200000       0.829156
     1353.300000       0.827859
     1353.400000       0.826570
     1353.500000       0.825286
     1353.600000       0.824005
     1353.700000       0.822727
     1353.800000       0.821449
     1353.900000       0.820174
     1354.000000       0.818898
     1354.100000       0.817620
     1354.200000       0.816340
     1354.300000       0.815055
     1354.400000       0.813766
     1354.500000       0.812471
     1354.600000       0.811170
     1354.700000       0.809862
     1354.800000       0.808544
     1354.900000       0.807219
     1355.000000       0.805887
     1355.100000       0.804547
     1355.200000       0.803201
     1355.300000       0.801847
     1355.400000       0.800489
     1355.500000       0.799126
     1355.600000       0.797760
     1355.700000       0.796391
     1355.800000       0.795016
     1355.900000       0.793637
     1356.000000       0.792251
     1356.100000       0.790861
     1356.200000       0.789464
     1356.300000       0.788058
     1356.400000       0.786643
     1356.500000       0.785218
     1356.600000       0.783784
     1356.700000       0.782340
     1356.800000       0.780882
     1356.900000       0.779414
     1357.000000       0.777932
     1357.100000       0.776435
     1357.200000       0.774925
     1357.300000       0.773398
     1357.400000       0.771856
     1357.500000       0.770298
     1357.600000       0.768721
     1357.700000       0.767126
     1357.800000       0.765510
     1357.900000       0.763876
     1358.000000       0.762222
     1358.100000       0.760546
     1358.200000       0.758847
     1358.300000       0.757121
     1358.400000       0.755374
     1358.500000       0.753606
     1358.600000       0.751814
     1358.700000       0.749997
     1358.800000       0.748151
     1358.900000       0.746283
     1359.000000       0.744387
     1359.100000       0.742455
     1359.200000       0.740484
     1359.300000       0.738467
     1359.400000       0.736406
     1359.500000       0.734294
     1359.600000       0.732124
     1359.700000       0.729892
     1359.800000       0.727588
     1359.900000       0.725222
     1360.000000       0.722783
     1360.100000       0.720263
     1360.200000       0.717656
     1360.300000       0.714957
     1360.400000       0.712175
     1360.500000       0.709301
     1360.600000       0.706323
     1360.700000       0.703236
     1360.800000       0.700037
     1360.900000       0.696736
     1361.000000       0.693327
     1361.100000       0.689805
     1361.200000       0.686168
     1361.300000       0.682421
     1361.400000       0.678579
     1361.500000       0.674640
     1361.600000       0.670606
     1361.700000       0.666478
     1361.800000       0.662256
     1361.900000       0.657960
     1362.000000       0.653591
     1362.100000       0.649152
     1362.200000       0.644644
     1362.300000       0.640075
     1362.400000       0.635460
     1362.500000       0.630797
     1362.600000       0.626090
     1362.700000       0.621345
     1362.800000       0.616567
     1362.900000       0.611771
     1363.000000       0.606953
     1363.100000       0.602118
     1363.200000       0.597275
     1363.300000       0.592422
     1363.400000       0.587576
     1363.500000       0.582736
     1363.600000       0.577898
     1363.700000       0.573053
     1363.800000       0.568188
     1363.900000       0.563308
     1364.000000       0.558401
     1364.100000       0.553462
     1364.200000       0.548481
     1364.300000       0.543444
     1364.400000       0.538351
     1364.500000       0.533198
     1364.600000       0.527976
     1364.700000       0.522678
     1364.800000       0.517287
     1364.900000       0.511803
     1365.000000       0.506218
     1365.100000       0.500529
     1365.200000       0.494725
     1365.300000       0.488788
     1365.400000       0.482720
     1365.500000       0.476511
     1365.600000       0.470167
     1365.700000       0.463704
     1365.800000       0.457133
     1365.900000       0.450495
     1366.000000       0.443804
     1366.100000       0.437076
     1366.200000       0.430334
     1366.300000       0.423592
     1366.400000       0.416889
     1366.500000       0.410238
     1366.600000       0.403660
     1366.700000       0.397169
     1366.800000       0.390775
     1366.900000       0.384529
     1367.000000       0.378440
     1367.100000       0.372521
     1367.200000       0.366756
     1367.300000       0.361135
     1367.400000       0.355668
     1367.500000       0.350344
     1367.600000       0.345148
     1367.700000       0.340068
     1367.800000       0.335099
     1367.900000       0.330242
     1368.000000       0.325485
     1368.100000       0.320815
     1368.200000       0.316224
     1368.300000       0.311701
     1368.400000       0.307254
     1368.500000       0.302870
     1368.600000       0.298530
     1368.700000       0.294227
     1368.800000       0.289956
     1368.900000       0.285721
     1369.000000       0.281512
     1369.100000       0.277308
     1369.200000       0.273110
     1369.300000       0.268921
     1369.400000       0.264757
     1369.500000       0.260616
     1369.600000       0.256490
     1369.700000       0.252376
     1369.800000       0.248282
     1369.900000       0.244221
     1370.000000       0.240188
     1370.100000       0.236182
     1370.200000       0.232201
     1370.300000       0.228246
     1370.400000       0.224329
     1370.500000       0.220449
     1370.600000       0.216603
     1370.700000       0.212790
     1370.800000       0.209012
     1370.900000       0.205280
     1371.000000       0.201587
     1371.100000       0.197933
     1371.200000       0.194324
     1371.300000       0.190758
     1371.400000       0.187244
     1371.500000       0.183777
     1371.600000       0.180357
     1371.700000       0.176988
     1371.800000       0.173662
     1371.900000       0.170390
     1372.000000       0.167167
     1372.100000       0.163991
     1372.200000       0.160862
     1372.300000       0.157776
     1372.400000       0.154741
     1372.500000       0.151754
     1372.600000       0.148813
     1372.700000       0.145920
     1372.800000       0.143068
     1372.900000       0.140264
     1373.000000       0.137505
     1373.100000       0.134794
     1373.200000       0.132131
     1373.300000       0.129509
     1373.400000       0.126936
     1373.500000       0.124407
     1373.600000       0.121927
     1373.700000       0.119492
     1373.800000       0.117101
     1373.900000       0.114756
     1374.000000       0.112457
     1374.100000       0.110206
     1374.200000       0.108001
     1374.300000       0.105838
     1374.400000       0.103725
     1374.500000       0.101658
     1374.600000       0.099638
     1374.700000       0.097662
     1374.800000       0.095731
     1374.900000       0.093849
     1375.000000       0.092013
     1375.100000       0.090224
     1375.200000       0.088478
     1375.300000       0.086771
     1375.400000       0.085110
     1375.500000       0.083493
     1375.600000       0.081917
     1375.700000       0.080379
     1375.800000       0.078876
     1375.900000       0.077415
     1376.000000       0.075992
     1376.100000       0.074604
     1376.200000       0.073250
     1376.300000       0.071929
     1376.400000       0.070644
     1376.500000       0.069391
     1376.600000       0.068168
     1376.700000       0.066975
     1376.800000       0.065810
     1376.900000       0.064675
     1377.000000       0.063568
     1377.100000       0.062486
     1377.200000       0.061427
     1377.300000       0.060392
     1377.400000       0.059382
     1377.500000       0.058395
     1377.600000       0.057427
     1377.700000       0.056478
     1377.800000       0.055548
     1377.900000       0.054637
     1378.000000       0.053744
     1378.100000       0.052866
     1378.200000       0.052002
     1378.300000       0.051151
     1378.400000       0.050314
     1378.500000       0.049490
     1378.600000       0.048676
     1378.700000       0.047871
     1378.800000       0.047075
     1378.900000       0.046289
     1379.000000       0.045513
     1379.100000       0.044747
     1379.200000       0.043988
     1379.300000       0.043239
     1379.400000       0.042499
     1379.500000       0.041769
     1379.600000       0.041047
     1379.700000       0.040335
     1379.800000       0.039631
     1379.900000       0.038937
     1380.000000       0.038253
     1380.100000       0.037576
     1380.200000       0.036909
     1380.300000       0.036251
     1380.400000       0.035602
     1380.500000       0.034963
     1380.600000       0.034332
     1380.700000       0.033711
     1380.800000       0.033097
     1380.900000       0.032493
     1381.000000       0.031899
     1381.100000       0.031313
     1381.200000       0.030737
     1381.300000       0.030169
     1381.400000       0.029609
     1381.500000       0.029059
     1381.600000       0.028519
     1381.700000       0.027987
     1381.800000       0.027463
     1381.900000       0.026949
     1382.000000       0.026443
     1382.100000       0.025947
     1382.200000       0.025460
     1382.300000       0.024981
     1382.400000       0.024512
     1382.500000       0.024051
     1382.600000       0.023599
     1382.700000       0.023156
     1382.800000       0.022722
     1382.900000       0.022297
     1383.000000       0.021881
     1383.100000       0.021474
     1383.200000       0.021076
     1383.300000       0.020686
     1383.400000       0.020305
     1383.500000       0.019932
     1383.600000       0.019568
     1383.700000       0.019211
     1383.800000       0.018861
     1383.900000       0.018520
     1384.000000       0.018187
     1384.100000       0.017862
     1384.200000       0.017543
     1384.300000       0.017231
     1384.400000       0.016927
     1384.500000       0.016630
     1384.600000       0.016340
     1384.700000       0.016056
     1384.800000       0.015778
     1384.900000       0.015507
     1385.000000       0.015243
     1385.100000       0.014984
     1385.200000       0.014732
     1385.300000       0.014485
     1385.400000       0.014244
     1385.500000       0.014008
     1385.600000       0.013778
     1385.700000       0.013553
     1385.800000       0.013333
     1385.900000       0.013118
     1386.000000       0.012908
     1386.100000       0.012703
     1386.200000       0.012501
     1386.300000       0.012304
     1386.400000       0.012112
     1386.500000       0.011924
     1386.600000       0.011740
     1386.700000       0.011560
     1386.800000       0.011383
     1386.900000       0.011210
     1387.000000       0.011041
     1387.100000       0.010875
     1387.200000       0.010713
     1387.300000       0.010553
     1387.400000       0.010397
     1387.500000       0.010244
     1387.600000       0.010094
     1387.700000       0.009946
     1387.800000       0.009801
     1387.900000       0.009659
     1388.000000       0.009519
     1388.100000       0.009381
     1388.200000       0.009245
     1388.300000       0.009111
     1388.400000       0.008980
     1388.500000       0.008850
     1388.600000       0.008721
     1388.700000       0.008595
     1388.800000       0.008469
     1388.900000       0.008346
     1389.000000       0.008223
     1389.100000       0.008103
     1389.200000       0.007984
     1389.300000       0.007866
     1389.400000       0.007750
     1389.500000       0.007635
     1389.600000       0.007522
     1389.700000       0.007411
     1389.800000       0.007300
     1389.900000       0.007191
     1390.000000       0.007084
     1390.100000       0.006978
     1390.200000       0.006874
     1390.300000       0.006771
     1390.400000       0.006669
     1390.500000       0.006569
     1390.600000       0.006470
     1390.700000       0.006373
     1390.800000       0.006276
     1390.900000       0.006182
     1391.000000       0.006088
     1391.100000       0.005996
     1391.200000       0.005905
     1391.300000       0.005816
     1391.400000       0.005728
     1391.500000       0.005641
     1391.600000       0.005555
     1391.700000       0.005470
     1391.800000       0.005387
     1391.900000       0.005305
     1392.000000       0.005224
     1392.100000       0.005144
     1392.200000       0.005065
     1392.300000       0.004988
     1392.400000       0.004911
     1392.500000       0.004836
     1392.600000       0.004762
     1392.700000       0.004689
     1392.800000       0.004616
     1392.900000       0.004545
     1393.000000       0.004475
     1393.100000       0.004406
     1393.200000       0.004338
     1393.300000       0.004271
     1393.400000       0.004205
     1393.500000       0.004139
     1393.600000       0.004075
     1393.700000       0.004012
     1393.800000       0.003950
     1393.900000       0.003888
     1394.000000       0.003828
     1394.100000       0.003768
     1394.200000       0.003709
     1394.300000       0.003651
     1394.400000       0.003594
     1394.500000       0.003538
     1394.600000       0.003483
     1394.700000       0.003428
     1394.800000       0.003375
     1394.900000       0.003322
     1395.000000       0.003270
     1395.100000       0.003219
     1395.200000       0.003168
     1395.300000       0.003119
     1395.400000       0.003070
     1395.500000       0.003022
     1395.600000       0.002975
     1395.700000       0.002928
     1395.800000       0.002883
     1395.900000       0.002838
     1396.000000       0.002794
     1396.100000       0.002750
     1396.200000       0.002708
     1396.300000       0.002666
     1396.400000       0.002624
     1396.500000       0.002584
     1396.600000       0.002544
     1396.700000       0.002505
     1396.800000       0.002467
     1396.900000       0.002429
     1397.000000       0.002392
     1397.100000       0.002355
     1397.200000       0.002320
     1397.300000       0.002285
     1397.400000       0.002250
     1397.500000       0.002216
     1397.600000       0.002183
     1397.700000       0.002151
     1397.800000       0.002119
     1397.900000       0.002087
     1398.000000       0.002057
     1398.100000       0.002027
     1398.200000       0.001997
     1398.300000       0.001968
     1398.400000       0.001939
     1398.500000       0.001912
     1398.600000       0.001884
     1398.700000       0.001857
     1398.800000       0.001831
     1398.900000       0.001805
     1399.000000       0.001779
     1399.100000       0.001754
     1399.200000       0.001730
     1399.300000       0.001706
     1399.400000       0.001683
     1399.500000       0.001660
     1399.600000       0.001637
     1399.700000       0.001615
     1399.800000       0.001594
     1399.900000       0.001573
     1400.000000       0.001552
     1400.100000       0.001532
     1400.200000       0.001513
     1400.300000       0.001494
     1400.400000       0.001475
     1400.500000       0.001457
     1400.600000       0.001439
     1400.700000       0.001422
     1400.800000       0.001405
     1400.900000       0.001389
     1401.000000       0.001373
     1401.100000       0.001357
     1401.200000       0.001342
     1401.300000       0.001328
     1401.400000       0.001314
     1401.500000       0.001300
     1401.600000       0.001287
     1401.700000       0.001274
     1401.800000       0.001261
     1401.900000       0.001249
     1402.000000       0.001238
     1402.100000       0.001227
     1402.200000       0.001216
     1402.300000       0.001206
     1402.400000       0.001196
     1402.500000       0.001186
     1402.600000       0.001177
     1402.700000       0.001168
     1402.800000       0.001160
     1402.900000       0.001152
     1403.000000       0.001145
     1403.100000       0.001137
     1403.200000       0.001131
     1403.300000       0.001124
     1403.400000       0.001118
     1403.500000       0.001112
     1403.600000       0.001107
     1403.700000       0.001102
     1403.800000       0.001097
     1403.900000       0.001093
     1404.000000       0.001089
     1404.100000       0.001085
     1404.200000       0.001082
     1404.300000       0.001079
     1404.400000       0.001076
     1404.500000       0.001074
     1404.600000       0.001071
     1404.700000       0.001070
     1404.800000       0.001068
     1404.900000       0.001067
     1405.000000       0.001066
     1405.100000       0.001066
     1405.200000       0.001065
     1405.300000       0.001065
     1405.400000       0.001066
     1405.500000       0.001066
     1405.600000       0.001067
     1405.700000       0.001068
     1405.800000       0.001069
     1405.900000       0.001071
     1406.000000       0.001073
     1406.100000       0.001075
     1406.200000       0.001077
     1406.300000       0.001080
     1406.400000       0.001083
     1406.500000       0.001086
     1406.600000       0.001089
     1406.700000       0.001093
     1406.800000       0.001097
     1406.900000       0.001101
     1407.000000       0.001105
     1407.100000       0.001109
     1407.200000       0.001114
     1407.300000       0.001119
     1407.400000       0.001124
     1407.500000       0.001130
     1407.600000       0.001135
     1407.700000       0.001141
     1407.800000       0.001147
     1407.900000       0.001153
     1408.000000       0.001159
     1408.100000       0.001166
     1408.200000       0.001173
     1408.300000       0.001180
     1408.400000       0.001187
     1408.500000       0.001194
     1408.600000       0.001201
     1408.700000       0.001209
     1408.800000       0.001217
     1408.900000       0.001225
     1409.000000       0.001233
     1409.100000       0.001241
     1409.200000       0.001249
     1409.300000       0.001258
     1409.400000       0.001267
     1409.500000       0.001275
     1409.600000       0.001284
     1409.700000       0.001293
     1409.800000       0.001303
     1409.900000       0.001312
     1410.000000       0.001321
     1410.100000       0.001331
     1410.200000       0.001340
     1410.300000       0.001350
     1410.400000       0.001360
     1410.500000       0.001370
     1410.600000       0.001380
     1410.700000       0.001390
     1410.800000       0.001400
     1410.900000       0.001410
     1411.000000       0.001420
     1411.100000       0.001430
     1411.200000       0.001440
     1411.300000       0.001450
     1411.400000       0.001461
     1411.500000       0.001471
     1411.600000       0.001481
     1411.700000       0.001491
     1411.800000       0.001502
     1411.900000       0.001512
     1412.000000       0.001522
     1412.100000       0.001532
     1412.200000       0.001543
     1412.300000       0.001553
     1412.400000       0.001563
     1412.500000       0.001573
     1412.600000       0.001583
     1412.700000       0.001593
     1412.800000       0.001603
     1412.900000       0.001613
     1413.000000       0.001622
     1413.100000       0.001632
     1413.200000       0.001642
     1413.300000       0.001651
     1413.400000       0.001660
     1413.500000       0.001670
     1413.600000       0.001679
     1413.700000       0.001688
     1413.800000       0.001697
     1413.900000       0.001706
     1414.000000       0.001715
     1414.100000       0.001723
     1414.200000       0.001732
     1414.300000       0.001740
     1414.400000       0.001748
     1414.500000       0.001756
     1414.600000       0.001764
     1414.700000       0.001772
     1414.800000       0.001780
     1414.900000       0.001788
     1415.000000       0.001795
     1415.100000       0.001803
     1415.200000       0.001810
     1415.300000       0.001817
     1415.400000       0.001824
     1415.500000       0.001830
     1415.600000       0.001837
     1415.700000       0.001843
     1415.800000       0.001850
     1415.900000       0.001856
     1416.000000       0.001862
     1416.100000       0.001867
     1416.200000       0.001873
     1416.300000       0.001878
     1416.400000       0.001884
     1416.500000       0.001889
     1416.600000       0.001893
     1416.700000       0.001898
     1416.800000       0.001902
     1416.900000       0.001907
     1417.000000       0.001910
     1417.100000       0.001914
     1417.200000       0.001918
     1417.300000       0.001921
     1417.400000       0.001924
     1417.500000       0.001926
     1417.600000       0.001929
     1417.700000       0.001931
     1417.800000       0.001932
     1417.900000       0.001934
     1418.000000       0.001935
     1418.100000       0.001935
     1418.200000       0.001936
     1418.300000       0.001936
     1418.400000       0.001935
     1418.500000       0.001935
     1418.600000       0.001933
     1418.700000       0.001932
     1418.800000       0.001930
     1418.900000       0.001928
     1419.000000       0.001925
     1419.100000       0.001922
     1419.200000       0.001918
     1419.300000       0.001914
     1419.400000       0.001910
     1419.500000       0.001906
     1419.600000       0.001901
     1419.700000       0.001895
     1419.800000       0.001890
     1419.900000       0.001884
     1420.000000       0.001878
     1420.100000       0.001871
     1420.200000       0.001864
     1420.300000       0.001857
     1420.400000       0.001849
     1420.500000       0.001841
     1420.600000       0.001833
     1420.700000       0.001825
     1420.800000       0.001816
     1420.900000       0.001807
     1421.000000       0.001798
     1421.100000       0.001789
     1421.200000       0.001779
     1421.300000       0.001769
     1421.400000       0.001759
     1421.500000       0.001748
     1421.600000       0.001738
     1421.700000       0.001727
     1421.800000       0.001716
     1421.900000       0.001704
     1422.000000       0.001693
     1422.100000       0.001681
     1422.200000       0.001669
     1422.300000       0.001657
     1422.400000       0.001644
     1422.500000       0.001632
     1422.600000       0.001619
     1422.700000       0.001606
     1422.800000       0.001593
     1422.900000       0.001580
     1423.000000       0.001567
     1423.100000       0.001553
     1423.200000       0.001539
     1423.300000       0.001525
     1423.400000       0.001511
     1423.500000       0.001497
     1423.600000       0.001483
     1423.700000       0.001469
     1423.800000       0.001454
     1423.900000       0.001439
     1424.000000       0.001425
     1424.100000       0.001410
     1424.200000       0.001395
     1424.300000       0.001379
     1424.400000       0.001364
     1424.500000       0.001349
     1424.600000       0.001333
     1424.700000       0.001318
     1424.800000       0.001302
     1424.900000       0.001286
     1425.000000       0.001270
     1425.100000       0.001255
     1425.200000       0.001239
     1425.300000       0.001222
     1425.400000       0.001206
     1425.500000       0.001190
     1425.600000       0.001173
     1425.700000       0.001157
     1425.800000       0.001140
     1425.900000       0.001123
     1426.000000       0.001107
     1426.100000       0.001090
     1426.200000       0.001073
     1426.300000       0.001056
     1426.400000       0.001039
     1426.500000       0.001021
     1426.600000       0.001004
     1426.700000       0.000987
     1426.800000       0.000969
     1426.900000       0.000951
     1427.000000       0.000934
     1427.100000       0.000916
     1427.200000       0.000898
     1427.300000       0.000880
     1427.400000       0.000862
     1427.500000       0.000844
     1427.600000       0.000826
     1427.700000       0.000808
     1427.800000       0.000790
     1427.900000       0.000772
     1428.000000       0.000753
     1428.100000       0.000735
     1428.200000       0.000716
     1428.300000       0.000698
     1428.400000       0.000679
     1428.500000       0.000661
     1428.600000       0.000642
     1428.700000       0.000623
     1428.800000       0.000604
     1428.900000       0.000585
     1429.000000       0.000567
     1429.100000       0.000547
