3,   channel VNIR2 SRF from LSTM_ISRF_all_bands.xlsx
Number of data points:
120
Wavenumber (cm-1)   Filter response
    11117.287382       0.000000
    11123.470523       0.000000
    11129.660545       0.000000
    11135.857461       0.000000
    11142.061281       0.000000
    11148.272018       0.000000
    11154.489682       0.000000
    11160.714286       0.000000
    11166.945840       0.000000
    11173.184358       0.000000
    11179.429849       0.000000
    11185.682327       0.000000
    11191.941802       0.000000
    11198.208287       0.000000
    11204.481793       0.000000
    11210.762332       0.000000
    11217.049916       0.000000
    11223.344557       0.000000
    11229.646266       0.000001
    11235.955056       0.000001
    11242.270939       0.000001
    11248.593926       0.000002
    11254.924029       0.000002
    11261.261261       0.000003
    11267.605634       0.000005
    11273.957159       0.000008
    11280.315849       0.000011
    11286.681716       0.000018
    11293.054771       0.000028
    11299.435028       0.000044
    11305.822499       0.000072
    11312.217195       0.000122
    11318.619128       0.000211
    11325.028313       0.000378
    11331.444759       0.000701
    11337.868481       0.001358
    11344.299490       0.002761
    11350.737798       0.005927
    11357.183419       0.013397
    11363.636364       0.030984
    11370.096646       0.067879
    11376.564278       0.128161
    11383.039271       0.203680
    11389.521640       0.283687
    11396.011396       0.362326
    11402.508552       0.437570
    11409.013120       0.508351
    11415.525114       0.574264
    11422.044546       0.636038
    11428.571429       0.693187
    11435.105775       0.748546
    11441.647597       0.799051
    11448.196909       0.849379
    11454.753723       0.893470
    11461.318052       0.934546
    11467.889908       0.965027
    11474.469306       0.982998
    11481.056257       0.994282
    11487.650775       0.998744
    11494.252874       1.000000
    11500.862565       0.999617
    11507.479862       0.999396
    11514.104778       0.998100
    11520.737327       0.996338
    11527.377522       0.993731
    11534.025375       0.991303
    11540.680900       0.988015
    11547.344111       0.984595
    11554.015020       0.980292
    11560.693642       0.975668
    11567.379988       0.970630
    11574.074074       0.966012
    11580.775912       0.961606
    11587.485516       0.957291
    11594.202899       0.953872
    11600.928074       0.950474
    11607.661056       0.948436
    11614.401858       0.946597
    11621.150494       0.943046
    11627.906977       0.929400
    11634.671321       0.896509
    11641.443539       0.843458
    11648.223646       0.777125
    11655.011655       0.705669
    11661.807580       0.632520
    11668.611435       0.561115
    11675.423234       0.492038
    11682.242991       0.426824
    11689.070719       0.364190
    11695.906433       0.305276
    11702.750146       0.248170
    11709.601874       0.195136
    11716.461629       0.144678
    11723.329426       0.102562
    11730.205279       0.067835
    11737.089202       0.041213
    11743.981210       0.024052
    11750.881316       0.012936
    11757.789536       0.006296
    11764.705882       0.002973
    11771.630371       0.001446
    11778.563015       0.000738
    11785.503830       0.000395
    11792.452830       0.000222
    11799.410029       0.000129
    11806.375443       0.000078
    11813.349084       0.000049
    11820.330969       0.000031
    11827.321112       0.000020
    11834.319527       0.000014
    11841.326229       0.000009
    11848.341232       0.000007
    11855.364552       0.000005
    11862.396204       0.000003
    11869.436202       0.000002
    11876.484561       0.000002
    11883.541295       0.000001
    11890.606421       0.000001
    11897.679952       0.000001
    11904.761905       0.000001
