1,   channel 1 SRF from file SRF_SSH-1_Delivery_220520/SRF_DMSP-F4_SSH_Chan01.asc received June 2022 from SPASCIA
Number of data points:
336
Wavenumber (cm-1)   Filter response
      335.300000       0.004100
      335.400000       0.004300
      335.500000       0.004400
      335.600000       0.004600
      335.700000       0.004800
      335.800000       0.005000
      335.900000       0.005200
      336.000000       0.005300
      336.100000       0.005500
      336.200000       0.005700
      336.300000       0.005900
      336.400000       0.006200
      336.500000       0.006400
      336.600000       0.006700
      336.700000       0.007000
      336.800000       0.007200
      336.900000       0.007600
      337.000000       0.008000
      337.100000       0.008300
      337.200000       0.008700
      337.300000       0.009000
      337.400000       0.009500
      337.500000       0.010000
      337.600000       0.010400
      337.700000       0.010900
      337.800000       0.011300
      337.900000       0.011800
      338.000000       0.012200
      338.100000       0.012700
      338.200000       0.013100
      338.300000       0.013600
      338.400000       0.014200
      338.500000       0.014800
      338.600000       0.015500
      338.700000       0.016100
      338.800000       0.016700
      338.900000       0.017500
      339.000000       0.018200
      339.100000       0.018900
      339.200000       0.019600
      339.300000       0.020400
      339.400000       0.021200
      339.500000       0.022000
      339.600000       0.022800
      339.700000       0.023600
      339.800000       0.024400
      339.900000       0.025600
      340.000000       0.026800
      340.100000       0.028000
      340.200000       0.029100
      340.300000       0.030300
      340.400000       0.031700
      340.500000       0.033000
      340.600000       0.034400
      340.700000       0.035700
      340.800000       0.037100
      340.900000       0.038700
      341.000000       0.040400
      341.100000       0.042000
      341.200000       0.043600
      341.300000       0.045200
      341.400000       0.047100
      341.500000       0.048900
      341.600000       0.050700
      341.700000       0.052500
      341.800000       0.054300
      341.900000       0.057000
      342.000000       0.059700
      342.100000       0.062400
      342.200000       0.065200
      342.300000       0.067900
      342.400000       0.071500
      342.500000       0.075100
      342.600000       0.078700
      342.700000       0.082400
      342.800000       0.086000
      342.900000       0.090500
      343.000000       0.095000
      343.100000       0.099500
      343.200000       0.104100
      343.300000       0.108600
      343.400000       0.112200
      343.500000       0.115800
      343.600000       0.119500
      343.700000       0.123100
      343.800000       0.126700
      343.900000       0.132100
      344.000000       0.137600
      344.100000       0.143000
      344.200000       0.148400
      344.300000       0.153800
      344.400000       0.161100
      344.500000       0.168300
      344.600000       0.175600
      344.700000       0.182800
      344.800000       0.190000
      344.900000       0.198200
      345.000000       0.206300
      345.100000       0.214500
      345.200000       0.222600
      345.300000       0.230800
      345.400000       0.239800
      345.500000       0.248900
      345.600000       0.257900
      345.700000       0.267000
      345.800000       0.276000
      345.900000       0.288700
      346.000000       0.301400
      346.100000       0.314000
      346.200000       0.326700
      346.300000       0.339400
      346.400000       0.349300
      346.500000       0.359300
      346.600000       0.369200
      346.700000       0.379200
      346.800000       0.389100
      346.900000       0.401800
      347.000000       0.414500
      347.100000       0.427100
      347.200000       0.439800
      347.300000       0.452500
      347.400000       0.466100
      347.500000       0.479600
      347.600000       0.493200
      347.700000       0.506800
      347.800000       0.520400
      347.900000       0.537600
      348.000000       0.554800
      348.100000       0.571900
      348.200000       0.589100
      348.300000       0.606300
      348.400000       0.620800
      348.500000       0.635300
      348.600000       0.649800
      348.700000       0.664300
      348.800000       0.678700
      348.900000       0.690500
      349.000000       0.702300
      349.100000       0.714000
      349.200000       0.725800
      349.300000       0.737600
      349.400000       0.752000
      349.500000       0.766500
      349.600000       0.781000
      349.700000       0.795500
      349.800000       0.810000
      349.900000       0.822600
      350.000000       0.835300
      350.100000       0.848000
      350.200000       0.860600
      350.300000       0.873300
      350.400000       0.884200
      350.500000       0.895000
      350.600000       0.905900
      350.700000       0.916700
      350.800000       0.927600
      350.900000       0.934800
      351.000000       0.942100
      351.100000       0.949300
      351.200000       0.956600
      351.300000       0.963800
      351.400000       0.968300
      351.500000       0.972900
      351.600000       0.977400
      351.700000       0.981900
      351.800000       0.986400
      351.900000       0.988200
      352.000000       0.990000
      352.100000       0.991900
      352.200000       0.993700
      352.300000       0.995500
      352.400000       0.996400
      352.500000       0.997300
      352.600000       0.998200
      352.700000       0.999100
      352.800000       1.000000
      352.900000       0.998200
      353.000000       0.996400
      353.100000       0.994600
      353.200000       0.992800
      353.300000       0.991000
      353.400000       0.987300
      353.500000       0.983700
      353.600000       0.980100
      353.700000       0.976500
      353.800000       0.972900
      353.900000       0.968300
      354.000000       0.963800
      354.100000       0.959300
      354.200000       0.954800
      354.300000       0.950200
      354.400000       0.944800
      354.500000       0.939400
      354.600000       0.933900
      354.700000       0.928500
      354.800000       0.923100
      354.900000       0.917600
      355.000000       0.912200
      355.100000       0.906800
      355.200000       0.901400
      355.300000       0.895900
      355.400000       0.885100
      355.500000       0.874200
      355.600000       0.863300
      355.700000       0.852500
      355.800000       0.841600
      355.900000       0.830800
      356.000000       0.819900
      356.100000       0.809000
      356.200000       0.798200
      356.300000       0.787300
      356.400000       0.775600
      356.500000       0.763800
      356.600000       0.752000
      356.700000       0.740300
      356.800000       0.728500
      356.900000       0.714000
      357.000000       0.699500
      357.100000       0.685100
      357.200000       0.670600
      357.300000       0.656100
      357.400000       0.638000
      357.500000       0.619900
      357.600000       0.601800
      357.700000       0.583700
      357.800000       0.565600
      357.900000       0.552000
      358.000000       0.538500
      358.100000       0.524900
      358.200000       0.511300
      358.300000       0.497700
      358.400000       0.479600
      358.500000       0.461500
      358.600000       0.443400
      358.700000       0.425300
      358.800000       0.407200
      358.900000       0.391000
      359.000000       0.374700
      359.100000       0.358400
      359.200000       0.342100
      359.300000       0.325800
      359.400000       0.313100
      359.500000       0.300500
      359.600000       0.287800
      359.700000       0.275100
      359.800000       0.262400
      359.900000       0.251600
      360.000000       0.240700
      360.100000       0.229900
      360.200000       0.219000
      360.300000       0.208100
      360.400000       0.200000
      360.500000       0.191900
      360.600000       0.183700
      360.700000       0.175600
      360.800000       0.167400
      360.900000       0.161100
      361.000000       0.154800
      361.100000       0.148400
      361.200000       0.142100
      361.300000       0.135700
      361.400000       0.129400
      361.500000       0.123100
      361.600000       0.116700
      361.700000       0.110400
      361.800000       0.104100
      361.900000       0.099500
      362.000000       0.095000
      362.100000       0.090500
      362.200000       0.086000
      362.300000       0.081400
      362.400000       0.078700
      362.500000       0.076000
      362.600000       0.073300
      362.700000       0.070600
      362.800000       0.067900
      362.900000       0.065200
      363.000000       0.062400
      363.100000       0.059700
      363.200000       0.057000
      363.300000       0.054300
      363.400000       0.051800
      363.500000       0.049200
      363.600000       0.046700
      363.700000       0.044200
      363.800000       0.041600
      363.900000       0.039900
      364.000000       0.038200
      364.100000       0.036500
      364.200000       0.034800
      364.300000       0.033000
      364.400000       0.031600
      364.500000       0.030100
      364.600000       0.028700
      364.700000       0.027200
      364.800000       0.025800
      364.900000       0.024800
      365.000000       0.023800
      365.100000       0.022800
      365.200000       0.021800
      365.300000       0.020800
      365.400000       0.019900
      365.500000       0.019000
      365.600000       0.018100
      365.700000       0.017200
      365.800000       0.016300
      365.900000       0.015600
      366.000000       0.014800
      366.100000       0.014100
      366.200000       0.013400
      366.300000       0.012700
      366.400000       0.012100
      366.500000       0.011600
      366.600000       0.011000
      366.700000       0.010500
      366.800000       0.010000
      366.900000       0.009600
      367.000000       0.009200
      367.100000       0.008900
      367.200000       0.008500
      367.300000       0.008100
      367.400000       0.007800
      367.500000       0.007400
      367.600000       0.007100
      367.700000       0.006700
      367.800000       0.006300
      367.900000       0.006100
      368.000000       0.005800
      368.100000       0.005500
      368.200000       0.005200
      368.300000       0.005000
      368.400000       0.004800
      368.500000       0.004600
      368.600000       0.004400
      368.700000       0.004300
      368.800000       0.004100
