 3    ,coms_01_mi_03.flt,   original "IR1 Spectral function _ Low.xls" truncated
Number of data points:
1341
Wavenumber (cm-1)   Filter response
      866.000000       0.000696
      866.100000       0.000751
      866.200000       0.000806
      866.300000       0.000872
      866.400000       0.000950
      866.500000       0.001023
      866.600000       0.001087
      866.700000       0.001167
      866.800000       0.001255
      866.900000       0.001325
      867.000000       0.001357
      867.100000       0.001352
      867.200000       0.001340
      867.300000       0.001335
      867.400000       0.001328
      867.500000       0.001317
      867.600000       0.001305
      867.700000       0.001296
      867.800000       0.001284
      867.900000       0.001252
      868.000000       0.001214
      868.100000       0.001208
      868.200000       0.001215
      868.300000       0.001213
      868.400000       0.001222
      868.500000       0.001246
      868.600000       0.001256
      868.700000       0.001250
      868.800000       0.001241
      868.900000       0.001249
      869.000000       0.001273
      869.100000       0.001273
      869.200000       0.001264
      869.300000       0.001322
      869.400000       0.001435
      869.500000       0.001557
      869.600000       0.001682
      869.700000       0.001809
      869.800000       0.001940
      869.900000       0.002073
      870.000000       0.002210
      870.100000       0.002350
      870.200000       0.002494
      870.300000       0.002639
      870.400000       0.002789
      870.500000       0.002939
      870.600000       0.003094
      870.700000       0.003257
      870.800000       0.003410
      870.900000       0.003540
      871.000000       0.003682
      871.100000       0.003853
      871.200000       0.004027
      871.300000       0.004200
      871.400000       0.004379
      871.500000       0.004552
      871.600000       0.004706
      871.700000       0.004843
      871.800000       0.004963
      871.900000       0.005056
      872.000000       0.005141
      872.100000       0.005251
      872.200000       0.005375
      872.300000       0.005494
      872.400000       0.005619
      872.500000       0.005744
      872.600000       0.005835
      872.700000       0.005924
      872.800000       0.006072
      872.900000       0.006248
      873.000000       0.006415
      873.100000       0.006578
      873.200000       0.006746
      873.300000       0.006917
      873.400000       0.007088
      873.500000       0.007261
      873.600000       0.007439
      873.700000       0.007621
      873.800000       0.007788
      873.900000       0.007965
      874.000000       0.008233
      874.100000       0.008553
      874.200000       0.008828
      874.300000       0.009103
      874.400000       0.009425
      874.500000       0.009730
      874.600000       0.010007
      874.700000       0.010322
      874.800000       0.010657
      874.900000       0.010949
      875.000000       0.011250
      875.100000       0.011620
      875.200000       0.012032
      875.300000       0.012464
      875.400000       0.012899
      875.500000       0.013333
      875.600000       0.013771
      875.700000       0.014213
      875.800000       0.014658
      875.900000       0.015108
      876.000000       0.015558
      876.100000       0.015994
      876.200000       0.016445
      876.300000       0.016959
      876.400000       0.017528
      876.500000       0.018124
      876.600000       0.018729
      876.700000       0.019335
      876.800000       0.019945
      876.900000       0.020559
      877.000000       0.021173
      877.100000       0.021780
      877.200000       0.022388
      877.300000       0.023008
      877.400000       0.023662
      877.500000       0.024407
      877.600000       0.025238
      877.700000       0.026084
      877.800000       0.026906
      877.900000       0.027692
      878.000000       0.028481
      878.100000       0.029307
      878.200000       0.030148
      878.300000       0.030985
      878.400000       0.031818
      878.500000       0.032663
      878.600000       0.033543
      878.700000       0.034463
      878.800000       0.035419
      878.900000       0.036387
      879.000000       0.037353
      879.100000       0.038321
      879.200000       0.039293
      879.300000       0.040266
      879.400000       0.041252
      879.500000       0.042255
      879.600000       0.043218
      879.700000       0.044180
      879.800000       0.045395
      879.900000       0.046862
      880.000000       0.048315
      880.100000       0.049736
      880.200000       0.051218
      880.300000       0.052704
      880.400000       0.054142
      880.500000       0.055584
      880.600000       0.057049
      880.700000       0.058497
      880.800000       0.059970
      880.900000       0.061572
      881.000000       0.063343
      881.100000       0.065290
      881.200000       0.067274
      881.300000       0.069227
      881.400000       0.071196
      881.500000       0.073172
      881.600000       0.075105
      881.700000       0.077045
      881.800000       0.079057
      881.900000       0.081038
      882.000000       0.082973
      882.100000       0.085234
      882.200000       0.087928
      882.300000       0.090709
      882.400000       0.093485
      882.500000       0.096321
      882.600000       0.099166
      882.700000       0.101959
      882.800000       0.104747
      882.900000       0.107565
      883.000000       0.110382
      883.100000       0.113212
      883.200000       0.116126
      883.300000       0.119246
      883.400000       0.122705
      883.500000       0.126285
      883.600000       0.129797
      883.700000       0.133333
      883.800000       0.136932
      883.900000       0.140518
      884.000000       0.144090
      884.100000       0.147707
      884.200000       0.151277
      884.300000       0.154749
      884.400000       0.158640
      884.500000       0.163297
      884.600000       0.168347
      884.700000       0.173513
      884.800000       0.178670
      884.900000       0.183821
      885.000000       0.188970
      885.100000       0.194107
      885.200000       0.199254
      885.300000       0.204422
      885.400000       0.209625
      885.500000       0.214862
      885.600000       0.220357
      885.700000       0.226570
      885.800000       0.233264
      885.900000       0.239877
      886.000000       0.246380
      886.100000       0.252888
      886.200000       0.259423
      886.300000       0.265996
      886.400000       0.272587
      886.500000       0.279156
      886.600000       0.285698
      886.700000       0.292465
      886.800000       0.299803
      886.900000       0.307566
      887.000000       0.315459
      887.100000       0.323285
      887.200000       0.331067
      887.300000       0.338901
      887.400000       0.346772
      887.500000       0.354594
      887.600000       0.362380
      887.700000       0.370175
      887.800000       0.377966
      887.900000       0.385777
      888.000000       0.393714
      888.100000       0.401810
      888.200000       0.409927
      888.300000       0.418004
      888.400000       0.426093
      888.500000       0.434168
      888.600000       0.442202
      888.700000       0.450257
      888.800000       0.458367
      888.900000       0.466434
      889.000000       0.474454
      889.100000       0.482680
      889.200000       0.491153
      889.300000       0.499670
      889.400000       0.508196
      889.500000       0.516758
      889.600000       0.525321
      889.700000       0.533842
      889.800000       0.542336
      889.900000       0.550832
      890.000000       0.559312
      890.100000       0.567793
      890.200000       0.576268
      890.300000       0.584644
      890.400000       0.592825
      890.500000       0.600921
      890.600000       0.609078
      890.700000       0.617204
      890.800000       0.625249
      890.900000       0.633319
      891.000000       0.641268
      891.100000       0.648953
      891.200000       0.656511
      891.300000       0.664123
      891.400000       0.671563
      891.500000       0.678475
      891.600000       0.685141
      891.700000       0.691833
      891.800000       0.698473
      891.900000       0.705048
      892.000000       0.711665
      892.100000       0.718293
      892.200000       0.724779
      892.300000       0.731232
      892.400000       0.737827
      892.500000       0.744164
      892.600000       0.749817
      892.700000       0.754900
      892.800000       0.759590
      892.900000       0.764162
      893.000000       0.768791
      893.100000       0.773577
      893.200000       0.778437
      893.300000       0.783241
      893.400000       0.788028
      893.500000       0.792850
      893.600000       0.797772
      893.700000       0.802657
      893.800000       0.806774
      893.900000       0.809970
      894.000000       0.813073
      894.100000       0.816369
      894.200000       0.819679
      894.300000       0.822959
      894.400000       0.826252
      894.500000       0.829549
      894.600000       0.832854
      894.700000       0.836254
      894.800000       0.839698
      894.900000       0.842728
      895.000000       0.845127
      895.100000       0.847204
      895.200000       0.849175
      895.300000       0.851161
      895.400000       0.853199
      895.500000       0.855271
      895.600000       0.857358
      895.700000       0.859456
      895.800000       0.861586
      895.900000       0.863755
      896.000000       0.865877
      896.100000       0.867874
      896.200000       0.869599
      896.300000       0.871081
      896.400000       0.872600
      896.500000       0.874208
      896.600000       0.875842
      896.700000       0.877504
      896.800000       0.879202
      896.900000       0.880919
      897.000000       0.882711
      897.100000       0.884753
      897.200000       0.886846
      897.300000       0.888547
      897.400000       0.889947
      897.500000       0.891374
      897.600000       0.892895
      897.700000       0.894475
      897.800000       0.896083
      897.900000       0.897721
      898.000000       0.899258
      898.100000       0.900597
      898.200000       0.901984
      898.300000       0.903429
      898.400000       0.904630
      898.500000       0.905591
      898.600000       0.906501
      898.700000       0.907399
      898.800000       0.908288
      898.900000       0.909223
      899.000000       0.910155
      899.100000       0.910983
      899.200000       0.911737
      899.300000       0.912521
      899.400000       0.913362
      899.500000       0.914184
      899.600000       0.914901
      899.700000       0.915417
      899.800000       0.915819
      899.900000       0.916288
      900.000000       0.916835
      900.100000       0.917406
      900.200000       0.918010
      900.300000       0.918619
      900.400000       0.919173
      900.500000       0.919651
      900.600000       0.920095
      900.700000       0.920553
      900.800000       0.921066
      900.900000       0.921629
      901.000000       0.922211
      901.100000       0.922852
      901.200000       0.923577
      901.300000       0.924337
      901.400000       0.925132
      901.500000       0.925915
      901.600000       0.926661
      901.700000       0.927425
      901.800000       0.928257
      901.900000       0.929197
      902.000000       0.930277
      902.100000       0.931528
      902.200000       0.932886
      902.300000       0.934239
      902.400000       0.935602
      902.500000       0.937019
      902.600000       0.938523
      902.700000       0.940115
      902.800000       0.941716
      902.900000       0.943292
      903.000000       0.944906
      903.100000       0.946574
      903.200000       0.948240
      903.300000       0.949902
      903.400000       0.951607
      903.500000       0.953317
      903.600000       0.954966
      903.700000       0.956556
      903.800000       0.958118
      903.900000       0.959690
      904.000000       0.961208
      904.100000       0.962559
      904.200000       0.963765
      904.300000       0.964737
      904.400000       0.965460
      904.500000       0.966118
      904.600000       0.966761
      904.700000       0.967347
      904.800000       0.967822
      904.900000       0.968140
      905.000000       0.968531
      905.100000       0.969165
      905.200000       0.969805
      905.300000       0.970336
      905.400000       0.970849
      905.500000       0.971388
      905.600000       0.971918
      905.700000       0.972427
      905.800000       0.972939
      905.900000       0.973468
      906.000000       0.973983
      906.100000       0.974486
      906.200000       0.975020
      906.300000       0.975559
      906.400000       0.976072
      906.500000       0.976658
      906.600000       0.977401
      906.700000       0.978229
      906.800000       0.979095
      906.900000       0.979987
      907.000000       0.980850
      907.100000       0.981679
      907.200000       0.982503
      907.300000       0.983334
      907.400000       0.984168
      907.500000       0.984988
      907.600000       0.985811
      907.700000       0.986668
      907.800000       0.987533
      907.900000       0.988372
      908.000000       0.989194
      908.100000       0.990023
      908.200000       0.990839
      908.300000       0.991618
      908.400000       0.992331
      908.500000       0.992979
      908.600000       0.993633
      908.700000       0.994295
      908.800000       0.994892
      908.900000       0.995402
      909.000000       0.995872
      909.100000       0.996345
      909.200000       0.996851
      909.300000       0.997338
      909.400000       0.997778
      909.500000       0.998192
      909.600000       0.998591
      909.700000       0.998966
      909.800000       0.999338
      909.900000       0.999702
      910.000000       0.999959
      910.100000       1.000000
      910.200000       0.999829
      910.300000       0.999584
      910.400000       0.999338
      910.500000       0.999112
      910.600000       0.998903
      910.700000       0.998680
      910.800000       0.998396
      910.900000       0.998057
      911.000000       0.997793
      911.100000       0.997674
      911.200000       0.997644
      911.300000       0.997590
      911.400000       0.997533
      911.500000       0.997496
      911.600000       0.997402
      911.700000       0.997239
      911.800000       0.997092
      911.900000       0.996965
      912.000000       0.996801
      912.100000       0.996556
      912.200000       0.996206
      912.300000       0.995817
      912.400000       0.995450
      912.500000       0.995110
      912.600000       0.994794
      912.700000       0.994457
      912.800000       0.994079
      912.900000       0.993716
      913.000000       0.993346
      913.100000       0.992868
      913.200000       0.992276
      913.300000       0.991744
      913.400000       0.991302
      913.500000       0.990833
      913.600000       0.990322
      913.700000       0.989832
      913.800000       0.989384
      913.900000       0.988930
      914.000000       0.988466
      914.100000       0.988042
      914.200000       0.987622
      914.300000       0.987209
      914.400000       0.986875
      914.500000       0.986652
      914.600000       0.986464
      914.700000       0.986257
      914.800000       0.986051
      914.900000       0.985869
      915.000000       0.985700
      915.100000       0.985535
      915.200000       0.985381
      915.300000       0.985216
      915.400000       0.985047
      915.500000       0.984851
      915.600000       0.984556
      915.700000       0.984158
      915.800000       0.983683
      915.900000       0.983194
      916.000000       0.982773
      916.100000       0.982321
      916.200000       0.981731
      916.300000       0.981034
      916.400000       0.980289
      916.500000       0.979499
      916.600000       0.978641
      916.700000       0.977700
      916.800000       0.976705
      916.900000       0.975697
      917.000000       0.974641
      917.100000       0.973519
      917.200000       0.972371
      917.300000       0.971279
      917.400000       0.970251
      917.500000       0.969225
      917.600000       0.968239
      917.700000       0.967387
      917.800000       0.966630
      917.900000       0.965928
      918.000000       0.965424
      918.100000       0.965195
      918.200000       0.965122
      918.300000       0.965077
      918.400000       0.965084
      918.500000       0.965193
      918.600000       0.965382
      918.700000       0.965625
      918.800000       0.965934
      918.900000       0.966300
      919.000000       0.966617
      919.100000       0.966864
      919.200000       0.967093
      919.300000       0.967332
      919.400000       0.967591
      919.500000       0.967840
      919.600000       0.968036
      919.700000       0.968183
      919.800000       0.968302
      919.900000       0.968397
      920.000000       0.968480
      920.100000       0.968562
      920.200000       0.968627
      920.300000       0.968670
      920.400000       0.968693
      920.500000       0.968689
      920.600000       0.968641
      920.700000       0.968507
      920.800000       0.968300
      920.900000       0.968133
      921.000000       0.967928
      921.100000       0.967526
      921.200000       0.967040
      921.300000       0.966607
      921.400000       0.966241
      921.500000       0.965910
      921.600000       0.965601
      921.700000       0.965315
      921.800000       0.965035
      921.900000       0.964730
      922.000000       0.964499
      922.100000       0.964487
      922.200000       0.964565
      922.300000       0.964594
      922.400000       0.964638
      922.500000       0.964772
      922.600000       0.964938
      922.700000       0.965058
      922.800000       0.965211
      922.900000       0.965481
      923.000000       0.965829
      923.100000       0.966226
      923.200000       0.966607
      923.300000       0.966928
      923.400000       0.967250
      923.500000       0.967607
      923.600000       0.967957
      923.700000       0.968269
      923.800000       0.968534
      923.900000       0.968779
      924.000000       0.969095
      924.100000       0.969627
      924.200000       0.970298
      924.300000       0.970911
      924.400000       0.971471
      924.500000       0.972019
      924.600000       0.972550
      924.700000       0.973064
      924.800000       0.973579
      924.900000       0.974067
      925.000000       0.974480
      925.100000       0.974775
      925.200000       0.974943
      925.300000       0.975056
      925.400000       0.975116
      925.500000       0.975147
      925.600000       0.975197
      925.700000       0.975238
      925.800000       0.975251
      925.900000       0.975270
      926.000000       0.975299
      926.100000       0.975304
      926.200000       0.975264
      926.300000       0.975177
      926.400000       0.975041
      926.500000       0.974869
      926.600000       0.974672
      926.700000       0.974447
      926.800000       0.974177
      926.900000       0.973819
      927.000000       0.973378
      927.100000       0.972910
      927.200000       0.972416
      927.300000       0.971853
      927.400000       0.971206
      927.500000       0.970485
      927.600000       0.969729
      927.700000       0.969008
      927.800000       0.968263
      927.900000       0.967359
      928.000000       0.966454
      928.100000       0.965729
      928.200000       0.965047
      928.300000       0.964339
      928.400000       0.963608
      928.500000       0.962819
      928.600000       0.962024
      928.700000       0.961292
      928.800000       0.960587
      928.900000       0.959861
      929.000000       0.959167
      929.100000       0.958538
      929.200000       0.957941
      929.300000       0.957369
      929.400000       0.956890
      929.500000       0.956552
      929.600000       0.956316
      929.700000       0.956141
      929.800000       0.956046
      929.900000       0.956032
      930.000000       0.956037
      930.100000       0.956057
      930.200000       0.956197
      930.300000       0.956455
      930.400000       0.956733
      930.500000       0.957007
      930.600000       0.957339
      930.700000       0.957733
      930.800000       0.958133
      930.900000       0.958483
      931.000000       0.958730
      931.100000       0.958866
      931.200000       0.958894
      931.300000       0.958854
      931.400000       0.958789
      931.500000       0.958686
      931.600000       0.958530
      931.700000       0.958336
      931.800000       0.958097
      931.900000       0.957783
      932.000000       0.957449
      932.100000       0.957189
      932.200000       0.957035
      932.300000       0.956951
      932.400000       0.956891
      932.500000       0.956822
      932.600000       0.956714
      932.700000       0.956606
      932.800000       0.956558
      932.900000       0.956550
      933.000000       0.956564
      933.100000       0.956612
      933.200000       0.956701
      933.300000       0.956824
      933.400000       0.956982
      933.500000       0.957202
      933.600000       0.957502
      933.700000       0.957853
      933.800000       0.958228
      933.900000       0.958636
      934.000000       0.959089
      934.100000       0.959598
      934.200000       0.960158
      934.300000       0.960753
      934.400000       0.961371
      934.500000       0.961943
      934.600000       0.962413
      934.700000       0.962836
      934.800000       0.963273
      934.900000       0.963696
      935.000000       0.964010
      935.100000       0.964244
      935.200000       0.964439
      935.300000       0.964583
      935.400000       0.964687
      935.500000       0.964781
      935.600000       0.964870
      935.700000       0.964896
      935.800000       0.964841
      935.900000       0.964760
      936.000000       0.964720
      936.100000       0.964733
      936.200000       0.964752
      936.300000       0.964757
      936.400000       0.964756
      936.500000       0.964751
      936.600000       0.964738
      936.700000       0.964705
      936.800000       0.964672
      936.900000       0.964690
      937.000000       0.964834
      937.100000       0.965221
      937.200000       0.965765
      937.300000       0.966292
      937.400000       0.966785
      937.500000       0.967239
      937.600000       0.967660
      937.700000       0.968100
      937.800000       0.968562
      937.900000       0.968968
      938.000000       0.969279
      938.100000       0.969538
      938.200000       0.969752
      938.300000       0.969945
      938.400000       0.970107
      938.500000       0.970191
      938.600000       0.970187
      938.700000       0.970110
      938.800000       0.970007
      938.900000       0.969891
      939.000000       0.969570
      939.100000       0.968925
      939.200000       0.968083
      939.300000       0.967120
      939.400000       0.966060
      939.500000       0.964937
      939.600000       0.963764
      939.700000       0.962540
      939.800000       0.961275
      939.900000       0.959982
      940.000000       0.958630
      940.100000       0.957140
      940.200000       0.955559
      940.300000       0.953977
      940.400000       0.952401
      940.500000       0.950830
      940.600000       0.949281
      940.700000       0.947747
      940.800000       0.946261
      940.900000       0.944937
      941.000000       0.943850
      941.100000       0.942967
      941.200000       0.942311
      941.300000       0.941833
      941.400000       0.941460
      941.500000       0.941177
      941.600000       0.940973
      941.700000       0.940831
      941.800000       0.940796
      941.900000       0.940901
      942.000000       0.940985
      942.100000       0.940933
      942.200000       0.940894
      942.300000       0.940976
      942.400000       0.941119
      942.500000       0.941252
      942.600000       0.941437
      942.700000       0.941764
      942.800000       0.942224
      942.900000       0.942782
      943.000000       0.943357
      943.100000       0.943847
      943.200000       0.944301
      943.300000       0.944822
      943.400000       0.945402
      943.500000       0.945996
      943.600000       0.946575
      943.700000       0.947109
      943.800000       0.947637
      943.900000       0.948229
      944.000000       0.948891
      944.100000       0.949588
      944.200000       0.950284
      944.300000       0.950950
      944.400000       0.951575
      944.500000       0.952155
      944.600000       0.952686
      944.700000       0.953164
      944.800000       0.953584
      944.900000       0.953932
      945.000000       0.954226
      945.100000       0.954486
      945.200000       0.954671
      945.300000       0.954780
      945.400000       0.954845
      945.500000       0.954872
      945.600000       0.954861
      945.700000       0.954824
      945.800000       0.954773
      945.900000       0.954696
      946.000000       0.954590
      946.100000       0.954460
      946.200000       0.954279
      946.300000       0.954033
      946.400000       0.953775
      946.500000       0.953561
      946.600000       0.953381
      946.700000       0.953192
      946.800000       0.953035
      946.900000       0.952967
      947.000000       0.952912
      947.100000       0.952800
      947.200000       0.952687
      947.300000       0.952620
      947.400000       0.952638
      947.500000       0.952799
      947.600000       0.953051
      947.700000       0.953282
      947.800000       0.953505
      947.900000       0.953799
      948.000000       0.954172
      948.100000       0.954601
      948.200000       0.955077
      948.300000       0.955575
      948.400000       0.956090
      948.500000       0.956611
      948.600000       0.957142
      948.700000       0.957710
      948.800000       0.958294
      948.900000       0.958842
      949.000000       0.959344
      949.100000       0.959815
      949.200000       0.960253
      949.300000       0.960646
      949.400000       0.961002
      949.500000       0.961343
      949.600000       0.961632
      949.700000       0.961758
      949.800000       0.961716
      949.900000       0.961613
      950.000000       0.961509
      950.100000       0.961418
      950.200000       0.961291
      950.300000       0.961116
      950.400000       0.960907
      950.500000       0.960610
      950.600000       0.960212
      950.700000       0.959774
      950.800000       0.959263
      950.900000       0.958529
      951.000000       0.957569
      951.100000       0.956539
      951.200000       0.955520
      951.300000       0.954479
      951.400000       0.953387
      951.500000       0.952240
      951.600000       0.951049
      951.700000       0.949865
      951.800000       0.948722
      951.900000       0.947587
      952.000000       0.946407
      952.100000       0.945140
      952.200000       0.943805
      952.300000       0.942489
      952.400000       0.941231
      952.500000       0.940033
      952.600000       0.938890
      952.700000       0.937821
      952.800000       0.936847
      952.900000       0.935939
      953.000000       0.935042
      953.100000       0.934173
      953.200000       0.933365
      953.300000       0.932627
      953.400000       0.931954
      953.500000       0.931316
      953.600000       0.930686
      953.700000       0.930096
      953.800000       0.929593
      953.900000       0.929160
      954.000000       0.928745
      954.100000       0.928336
      954.200000       0.927968
      954.300000       0.927562
      954.400000       0.926942
      954.500000       0.926156
      954.600000       0.925367
      954.700000       0.924616
      954.800000       0.923870
      954.900000       0.923127
      955.000000       0.922417
      955.100000       0.921748
      955.200000       0.921137
      955.300000       0.920558
      955.400000       0.919959
      955.500000       0.919250
      955.600000       0.918251
      955.700000       0.916955
      955.800000       0.915573
      955.900000       0.914194
      956.000000       0.912772
      956.100000       0.911299
      956.200000       0.909774
      956.300000       0.908176
      956.400000       0.906482
      956.500000       0.904675
      956.600000       0.902722
      956.700000       0.900596
      956.800000       0.898300
      956.900000       0.895824
      957.000000       0.893217
      957.100000       0.890524
      957.200000       0.887769
      957.300000       0.884976
      957.400000       0.882186
      957.500000       0.879430
      957.600000       0.876675
      957.700000       0.873880
      957.800000       0.871065
      957.900000       0.868249
      958.000000       0.865430
      958.100000       0.862580
      958.200000       0.859730
      958.300000       0.856956
      958.400000       0.854246
      958.500000       0.851569
      958.600000       0.848947
      958.700000       0.846422
      958.800000       0.844000
      958.900000       0.841661
      959.000000       0.839293
      959.100000       0.836651
      959.200000       0.833747
      959.300000       0.830860
      959.400000       0.828086
      959.500000       0.825361
      959.600000       0.822646
      959.700000       0.819944
      959.800000       0.817268
      959.900000       0.814644
      960.000000       0.812057
      960.100000       0.809393
      960.200000       0.806557
      960.300000       0.803525
      960.400000       0.800289
      960.500000       0.796976
      960.600000       0.793681
      960.700000       0.790422
      960.800000       0.787215
      960.900000       0.783989
      961.000000       0.780642
      961.100000       0.777230
      961.200000       0.773879
      961.300000       0.770379
      961.400000       0.766402
      961.500000       0.762096
      961.600000       0.757734
      961.700000       0.753374
      961.800000       0.748992
      961.900000       0.744520
      962.000000       0.739883
      962.100000       0.735089
      962.200000       0.730198
      962.300000       0.725259
      962.400000       0.720245
      962.500000       0.715137
      962.600000       0.709933
      962.700000       0.704642
      962.800000       0.699288
      962.900000       0.693881
      963.000000       0.688528
      963.100000       0.683330
      963.200000       0.678213
      963.300000       0.673091
      963.400000       0.667975
      963.500000       0.662885
      963.600000       0.657747
      963.700000       0.652484
      963.800000       0.647112
      963.900000       0.641633
      964.000000       0.636174
      964.100000       0.630852
      964.200000       0.625641
      964.300000       0.620484
      964.400000       0.615394
      964.500000       0.610422
      964.600000       0.605556
      964.700000       0.600756
      964.800000       0.595970
      964.900000       0.591088
      965.000000       0.586092
      965.100000       0.581026
      965.200000       0.575925
      965.300000       0.570856
      965.400000       0.565822
      965.500000       0.560781
      965.600000       0.555710
      965.700000       0.550646
      965.800000       0.545604
      965.900000       0.540495
      966.000000       0.535199
      966.100000       0.529661
      966.200000       0.523915
      966.300000       0.518075
      966.400000       0.512187
      966.500000       0.506270
      966.600000       0.500339
      966.700000       0.494388
      966.800000       0.488417
      966.900000       0.482428
      967.000000       0.476457
      967.100000       0.470534
      967.200000       0.464704
      967.300000       0.458962
      967.400000       0.453254
      967.500000       0.447562
      967.600000       0.441855
      967.700000       0.436128
      967.800000       0.430431
      967.900000       0.424783
      968.000000       0.419188
      968.100000       0.413661
      968.200000       0.408180
      968.300000       0.402697
      968.400000       0.397254
      968.500000       0.391917
      968.600000       0.386602
      968.700000       0.381225
      968.800000       0.375838
      968.900000       0.370495
      969.000000       0.365143
      969.100000       0.359717
      969.200000       0.354252
      969.300000       0.348768
      969.400000       0.343332
      969.500000       0.338108
      969.600000       0.333102
      969.700000       0.328199
      969.800000       0.323345
      969.900000       0.318498
      970.000000       0.313633
      970.100000       0.308755
      970.200000       0.303873
      970.300000       0.298996
      970.400000       0.294121
      970.500000       0.289271
      970.600000       0.284474
      970.700000       0.279801
      970.800000       0.275330
      970.900000       0.270961
      971.000000       0.266588
      971.100000       0.262219
      971.200000       0.257885
      971.300000       0.253574
      971.400000       0.249261
      971.500000       0.244937
      971.600000       0.240578
      971.700000       0.236227
      971.800000       0.232004
      971.900000       0.227951
      972.000000       0.224065
      972.100000       0.220329
      972.200000       0.216628
      972.300000       0.212891
      972.400000       0.209129
      972.500000       0.205367
      972.600000       0.201597
      972.700000       0.197813
      972.800000       0.194017
      972.900000       0.190216
      973.000000       0.186538
      973.100000       0.183158
      973.200000       0.179965
      973.300000       0.176739
      973.400000       0.173448
      973.500000       0.170185
      973.600000       0.166955
      973.700000       0.163694
      973.800000       0.160382
      973.900000       0.157021
      974.000000       0.153652
      974.100000       0.150396
      974.200000       0.147344
      974.300000       0.144483
      974.400000       0.141790
      974.500000       0.139170
      974.600000       0.136537
      974.700000       0.133867
      974.800000       0.131160
      974.900000       0.128456
      975.000000       0.125816
      975.100000       0.123209
      975.200000       0.120574
      975.300000       0.117989
      975.400000       0.115637
      975.500000       0.113538
      975.600000       0.111518
      975.700000       0.109488
      975.800000       0.107454
      975.900000       0.105420
      976.000000       0.103400
      976.100000       0.101402
      976.200000       0.099426
      976.300000       0.097481
      976.400000       0.095573
      976.500000       0.093718
      976.600000       0.091927
      976.700000       0.090220
      976.800000       0.088567
      976.900000       0.086912
      977.000000       0.085247
      977.100000       0.083586
      977.200000       0.081921
      977.300000       0.080233
      977.400000       0.078514
      977.500000       0.076792
      977.600000       0.075108
      977.700000       0.073548
      977.800000       0.072177
      977.900000       0.070897
      978.000000       0.069620
      978.100000       0.068316
      978.200000       0.066970
      978.300000       0.065605
      978.400000       0.064248
      978.500000       0.062887
      978.600000       0.061483
      978.700000       0.060095
      978.800000       0.058885
      978.900000       0.057883
      979.000000       0.056959
      979.100000       0.056040
      979.200000       0.055134
      979.300000       0.054255
      979.400000       0.053389
      979.500000       0.052523
      979.600000       0.051656
      979.700000       0.050791
      979.800000       0.049929
      979.900000       0.049077
      980.000000       0.048265
      980.100000       0.047542
      980.200000       0.046888
      980.300000       0.046246
      980.400000       0.045587
      980.500000       0.044901
      980.600000       0.044192
      980.700000       0.043494
      980.800000       0.042830
      980.900000       0.042182
      981.000000       0.041538
      981.100000       0.040887
      981.200000       0.040211
      981.300000       0.039512
      981.400000       0.038792
      981.500000       0.038057
      981.600000       0.037314
      981.700000       0.036577
      981.800000       0.035874
      981.900000       0.035195
      982.000000       0.034497
      982.100000       0.033761
      982.200000       0.033024
      982.300000       0.032316
      982.400000       0.031647
      982.500000       0.031029
      982.600000       0.030449
      982.700000       0.029899
      982.800000       0.029351
      982.900000       0.028768
      983.000000       0.028161
      983.100000       0.027562
      983.200000       0.026963
      983.300000       0.026325
      983.400000       0.025683
      983.500000       0.025182
      983.600000       0.024880
      983.700000       0.024633
      983.800000       0.024340
      983.900000       0.024045
      984.000000       0.023793
      984.100000       0.023548
      984.200000       0.023261
      984.300000       0.022955
      984.400000       0.022681
      984.500000       0.022433
      984.600000       0.022173
      984.700000       0.021909
      984.800000       0.021691
      984.900000       0.021529
      985.000000       0.021358
      985.100000       0.021140
      985.200000       0.020921
      985.300000       0.020744
      985.400000       0.020572
      985.500000       0.020366
      985.600000       0.020137
      985.700000       0.019916
      985.800000       0.019699
      985.900000       0.019461
      986.000000       0.019191
      986.100000       0.018902
      986.200000       0.018613
      986.300000       0.018336
      986.400000       0.018065
      986.500000       0.017776
      986.600000       0.017455
      986.700000       0.017137
      986.800000       0.016861
      986.900000       0.016601
      987.000000       0.016304
      987.100000       0.015971
      987.200000       0.015636
      987.300000       0.015312
      987.400000       0.014999
      987.500000       0.014689
      987.600000       0.014362
      987.700000       0.014011
      987.800000       0.013670
      987.900000       0.013361
      988.000000       0.013061
      988.100000       0.012756
      988.200000       0.012436
      988.300000       0.012091
      988.400000       0.011736
      988.500000       0.011407
      988.600000       0.011105
      988.700000       0.010810
      988.800000       0.010514
      988.900000       0.010217
      989.000000       0.009920
      989.100000       0.009622
      989.200000       0.009323
      989.300000       0.009027
      989.400000       0.008736
      989.500000       0.008448
      989.600000       0.008158
      989.700000       0.007874
      989.800000       0.007616
      989.900000       0.007378
      990.000000       0.007130
      990.100000       0.006859
      990.200000       0.006571
      990.300000       0.006281
      990.400000       0.006034
      990.500000       0.005867
      990.600000       0.005749
      990.700000       0.005644
      990.800000       0.005542
      990.900000       0.005439
      991.000000       0.005336
      991.100000       0.005233
      991.200000       0.005129
      991.300000       0.005023
      991.400000       0.004917
      991.500000       0.004820
      991.600000       0.004740
      991.700000       0.004673
      991.800000       0.004617
      991.900000       0.004572
      992.000000       0.004539
      992.100000       0.004513
      992.200000       0.004490
      992.300000       0.004462
      992.400000       0.004417
      992.500000       0.004356
      992.600000       0.004307
      992.700000       0.004281
      992.800000       0.004238
      992.900000       0.004140
      993.000000       0.004009
      993.100000       0.003872
      993.200000       0.003740
      993.300000       0.003612
      993.400000       0.003485
      993.500000       0.003358
      993.600000       0.003232
      993.700000       0.003120
      993.800000       0.003023
      993.900000       0.002923
      994.000000       0.002801
      994.100000       0.002672
      994.200000       0.002550
      994.300000       0.002436
      994.400000       0.002323
      994.500000       0.002212
      994.600000       0.002105
      994.700000       0.002001
      994.800000       0.001898
      994.900000       0.001795
      995.000000       0.001703
      995.100000       0.001630
      995.200000       0.001574
      995.300000       0.001534
      995.400000       0.001501
      995.500000       0.001466
      995.600000       0.001430
      995.700000       0.001401
      995.800000       0.001378
      995.900000       0.001352
      996.000000       0.001319
      996.100000       0.001285
      996.200000       0.001256
      996.300000       0.001227
      996.400000       0.001197
      996.500000       0.001167
      996.600000       0.001138
      996.700000       0.001109
      996.800000       0.001079
      996.900000       0.001048
      997.000000       0.001022
      997.100000       0.001002
      997.200000       0.000984
      997.300000       0.000965
      997.400000       0.000935
      997.500000       0.000884
      997.600000       0.000821
      997.700000       0.000756
      997.800000       0.000694
      997.900000       0.000634
      998.000000       0.000578
      998.100000       0.000526
      998.200000       0.000478
      998.300000       0.000431
      998.400000       0.000385
      998.500000       0.000343
      998.600000       0.000308
      998.700000       0.000280
      998.800000       0.000255
      998.900000       0.000232
      999.000000       0.000213
      999.100000       0.000200
      999.200000       0.000187
      999.300000       0.000170
      999.400000       0.000153
      999.500000       0.000137
      999.600000       0.000122
      999.700000       0.000110
      999.800000       0.000102
      999.900000       0.000106
     1000.000000       0.000120
