          19  , Jan 12th 2012 http://fy3.satellite.cma.gov.cn/ArssEn/Download/FY3A_calibration_info_params.rar
Number of data points:
128
Wavenumber (cm-1)   Filter response
     2434.275000       0.002777
     2435.460000       0.002968
     2436.647000       0.002794
     2437.835000       0.009427
     2439.024000       0.005896
     2440.215000       0.006242
     2441.406000       0.000563
     2442.599000       0.003505
     2443.793000       0.002178
     2444.988000       0.007067
     2446.184000       0.004836
     2447.381000       0.006402
     2448.580000       0.003479
     2449.780000       0.009655
     2450.980000       0.011073
     2452.182000       0.002930
     2453.385000       0.008391
     2454.590000       0.009292
     2455.796000       0.009769
     2457.002000       0.007256
     2458.210000       0.009749
     2459.420000       0.014088
     2460.630000       0.012702
     2461.842000       0.014196
     2463.054000       0.010976
     2464.268000       0.012502
     2465.483000       0.020497
     2466.700000       0.020738
     2467.917000       0.023766
     2469.136000       0.019498
     2470.356000       0.026162
     2471.577000       0.025784
     2472.799000       0.034723
     2474.023000       0.034028
     2475.248000       0.039959
     2476.473000       0.046834
     2477.701000       0.050928
     2478.929000       0.058012
     2480.159000       0.069263
     2481.389000       0.077166
     2482.622000       0.089094
     2483.855000       0.105110
     2485.089000       0.115327
     2486.325000       0.134509
     2487.562000       0.157736
     2488.800000       0.192504
     2490.040000       0.224530
     2491.281000       0.256302
     2492.522000       0.298500
     2493.765000       0.344077
     2495.010000       0.396113
     2496.256000       0.445604
     2497.502000       0.510436
     2498.751000       0.567526
     2500.000000       0.622808
     2501.251000       0.890239
     2502.502000       0.934389
     2503.756000       0.965601
     2505.010000       0.986447
     2506.266000       1.000000
     2507.523000       0.999482
     2508.781000       0.990196
     2510.040000       0.980196
     2511.301000       0.961600
     2512.563000       0.937018
     2513.826000       0.908625
     2515.091000       0.917873
     2516.356000       0.916658
     2517.624000       0.907358
     2518.892000       0.891495
     2520.161000       0.868526
     2521.432000       0.835221
     2522.704000       0.792096
     2523.978000       0.750000
     2525.252000       0.691804
     2526.529000       0.602252
     2527.806000       0.546170
     2529.084000       0.478823
     2530.365000       0.422626
     2531.646000       0.367466
     2532.928000       0.307609
     2534.212000       0.263771
     2535.497000       0.226346
     2536.783000       0.193547
     2538.071000       0.160780
     2539.360000       0.135345
     2540.650000       0.115419
     2541.942000       0.098657
     2543.235000       0.084727
     2544.529000       0.074203
     2545.825000       0.064726
     2547.122000       0.056796
     2548.420000       0.048057
     2549.719000       0.041556
     2551.020000       0.038019
     2552.323000       0.033191
     2553.626000       0.028028
     2554.931000       0.025753
     2556.237000       0.022606
     2557.545000       0.020841
     2558.854000       0.015780
     2560.164000       0.014163
     2561.475000       0.013768
     2562.788000       0.010799
     2564.103000       0.012049
     2565.418000       0.013637
     2566.735000       0.006620
     2568.053000       0.009109
     2569.373000       0.009168
     2570.694000       0.006215
     2572.016000       0.005752
     2573.340000       0.007896
     2574.665000       0.006881
     2575.992000       0.002869
     2577.320000       0.003352
     2578.649000       0.005740
     2579.979000       0.001111
     2581.311000       0.006353
     2582.645000       0.003919
     2583.979000       0.003508
     2585.315000       0.006436
     2586.653000       0.001857
     2587.992000       0.003586
     2589.332000       0.003913
     2590.674000       0.004462
     2592.017000       0.002631
     2593.361000       0.004607
     2594.707000       0.002881
