9,    channel 9 SRF extracted from SRF_FY4B_AGRI.zip (FY4B_AGRI_SRF_CH9_Pub.txt)
Number of data points:
5905
Wavenumber (cm-1)   Filter response
     1250.000000       0.000000
     1250.078100       0.000000
     1250.156300       0.000000
     1250.234400       0.000000
     1250.312600       0.000000
     1250.390700       0.000000
     1250.468900       0.000000
     1250.547100       0.000000
     1250.625300       0.000000
     1250.703500       0.000000
     1250.781700       0.000100
     1250.860000       0.000100
     1250.938200       0.000100
     1251.016500       0.000100
     1251.094700       0.000100
     1251.173000       0.000100
     1251.251300       0.000100
     1251.329500       0.000100
     1251.407800       0.000100
     1251.486100       0.000100
     1251.564500       0.000100
     1251.642800       0.000100
     1251.721100       0.000100
     1251.799500       0.000100
     1251.877800       0.000200
     1251.956200       0.000200
     1252.034600       0.000200
     1252.112900       0.000200
     1252.191300       0.000200
     1252.269700       0.000200
     1252.348200       0.000200
     1252.426600       0.000200
     1252.505000       0.000200
     1252.583500       0.000200
     1252.661900       0.000200
     1252.740400       0.000200
     1252.818800       0.000200
     1252.897300       0.000200
     1252.975800       0.000200
     1253.054300       0.000300
     1253.132800       0.000300
     1253.211400       0.000300
     1253.289900       0.000300
     1253.368400       0.000300
     1253.447000       0.000300
     1253.525500       0.000300
     1253.604100       0.000300
     1253.682700       0.000300
     1253.761300       0.000300
     1253.839900       0.000300
     1253.918500       0.000300
     1253.997100       0.000300
     1254.075700       0.000300
     1254.154400       0.000200
     1254.233000       0.000200
     1254.311700       0.000200
     1254.390400       0.000200
     1254.469000       0.000200
     1254.547700       0.000200
     1254.626400       0.000200
     1254.705100       0.000200
     1254.783900       0.000200
     1254.862600       0.000200
     1254.941300       0.000200
     1255.020100       0.000200
     1255.098800       0.000200
     1255.177600       0.000200
     1255.256400       0.000200
     1255.335200       0.000100
     1255.414000       0.000100
     1255.492800       0.000100
     1255.571600       0.000100
     1255.650400       0.000100
     1255.729300       0.000100
     1255.808100       0.000100
     1255.887000       0.000100
     1255.965800       0.000100
     1256.044700       0.000100
     1256.123600       0.000100
     1256.202500       0.000100
     1256.281400       0.000100
     1256.360300       0.000000
     1256.439300       0.000000
     1256.518200       0.000000
     1256.597100       0.000000
     1256.676100       0.000000
     1256.755100       0.000000
     1256.834000       0.000000
     1256.913000       0.000000
     1256.992000       0.000000
     1257.071000       0.000000
     1257.150000       0.000000
     1257.229100       0.000000
     1257.308100       0.000000
     1257.387100       0.000000
     1257.466200       0.000000
     1257.545300       0.000000
     1257.624300       0.000000
     1257.703400       0.000000
     1257.782500       0.000000
     1257.861600       0.000000
     1257.940800       0.000000
     1258.019900       0.000000
     1258.099000       0.000000
     1258.178200       0.000000
     1258.257300       0.000000
     1258.336500       0.000100
     1258.415700       0.000100
     1258.494800       0.000100
     1258.574000       0.000100
     1258.653200       0.000100
     1258.732500       0.000100
     1258.811700       0.000100
     1258.890900       0.000100
     1258.970200       0.000100
     1259.049400       0.000100
     1259.128700       0.000200
     1259.208000       0.000200
     1259.287200       0.000200
     1259.366500       0.000200
     1259.445800       0.000200
     1259.525200       0.000200
     1259.604500       0.000200
     1259.683800       0.000200
     1259.763200       0.000200
     1259.842500       0.000200
     1259.921900       0.000300
     1260.001300       0.000300
     1260.080600       0.000300
     1260.160000       0.000300
     1260.239400       0.000300
     1260.318900       0.000300
     1260.398300       0.000300
     1260.477700       0.000300
     1260.557200       0.000300
     1260.636600       0.000300
     1260.716100       0.000300
     1260.795600       0.000300
     1260.875000       0.000300
     1260.954500       0.000300
     1261.034000       0.000400
     1261.113600       0.000400
     1261.193100       0.000400
     1261.272600       0.000400
     1261.352200       0.000400
     1261.431700       0.000400
     1261.511300       0.000400
     1261.590900       0.000300
     1261.670500       0.000300
     1261.750000       0.000300
     1261.829700       0.000300
     1261.909300       0.000300
     1261.988900       0.000300
     1262.068500       0.000300
     1262.148200       0.000300
     1262.227800       0.000300
     1262.307500       0.000300
     1262.387200       0.000300
     1262.466900       0.000300
     1262.546600       0.000300
     1262.626300       0.000300
     1262.706000       0.000200
     1262.785700       0.000200
     1262.865400       0.000200
     1262.945200       0.000200
     1263.024900       0.000200
     1263.104700       0.000200
     1263.184500       0.000200
     1263.264300       0.000200
     1263.344100       0.000200
     1263.423900       0.000100
     1263.503700       0.000100
     1263.583500       0.000100
     1263.663400       0.000100
     1263.743200       0.000100
     1263.823100       0.000100
     1263.902900       0.000100
     1263.982800       0.000100
     1264.062700       0.000100
     1264.142600       0.000100
     1264.222500       0.000100
     1264.302400       0.000000
     1264.382300       0.000000
     1264.462300       0.000000
     1264.542200       0.000000
     1264.622200       0.000000
     1264.702200       0.000000
     1264.782100       0.000000
     1264.862100       0.000000
     1264.942100       0.000000
     1265.022100       0.000000
     1265.102200       0.000000
     1265.182200       0.000000
     1265.262200       0.000000
     1265.342300       0.000000
     1265.422300       0.000000
     1265.502400       0.000000
     1265.582500       0.000000
     1265.662600       0.000000
     1265.742700       0.000000
     1265.822800       0.000000
     1265.902900       0.000000
     1265.983000       0.000100
     1266.063200       0.000100
     1266.143300       0.000100
     1266.223500       0.000100
     1266.303700       0.000100
     1266.383800       0.000100
     1266.464000       0.000100
     1266.544200       0.000100
     1266.624400       0.000100
     1266.704700       0.000100
     1266.784900       0.000200
     1266.865100       0.000200
     1266.945400       0.000200
     1267.025700       0.000200
     1267.105900       0.000200
     1267.186200       0.000200
     1267.266500       0.000200
     1267.346800       0.000200
     1267.427100       0.000300
     1267.507400       0.000300
     1267.587800       0.000300
     1267.668100       0.000300
     1267.748500       0.000300
     1267.828800       0.000300
     1267.909200       0.000300
     1267.989600       0.000300
     1268.070000       0.000300
     1268.150400       0.000400
     1268.230800       0.000400
     1268.311200       0.000400
     1268.391700       0.000400
     1268.472100       0.000400
     1268.552600       0.000400
     1268.633000       0.000400
     1268.713500       0.000400
     1268.794000       0.000400
     1268.874500       0.000400
     1268.955000       0.000400
     1269.035500       0.000400
     1269.116100       0.000400
     1269.196600       0.000400
     1269.277100       0.000400
     1269.357700       0.000400
     1269.438300       0.000400
     1269.518900       0.000400
     1269.599400       0.000400
     1269.680000       0.000400
     1269.760700       0.000400
     1269.841300       0.000400
     1269.921900       0.000300
     1270.002500       0.000300
     1270.083200       0.000300
     1270.163900       0.000300
     1270.244500       0.000300
     1270.325200       0.000300
     1270.405900       0.000300
     1270.486600       0.000300
     1270.567300       0.000300
     1270.648000       0.000200
     1270.728800       0.000200
     1270.809500       0.000200
     1270.890300       0.000200
     1270.971000       0.000200
     1271.051800       0.000200
     1271.132600       0.000200
     1271.213400       0.000200
     1271.294200       0.000100
     1271.375000       0.000100
     1271.455800       0.000100
     1271.536700       0.000100
     1271.617500       0.000100
     1271.698400       0.000100
     1271.779200       0.000100
     1271.860100       0.000100
     1271.941000       0.000100
     1272.021900       0.000000
     1272.102800       0.000000
     1272.183700       0.000000
     1272.264600       0.000000
     1272.345600       0.000000
     1272.426500       0.000000
     1272.507500       0.000000
     1272.588400       0.000000
     1272.669400       0.000000
     1272.750400       0.000000
     1272.831400       0.000000
     1272.912400       0.000000
     1272.993400       0.000000
     1273.074500       0.000000
     1273.155500       0.000000
     1273.236600       0.000000
     1273.317600       0.000000
     1273.398700       0.000000
     1273.479800       0.000000
     1273.560900       0.000000
     1273.642000       0.000100
     1273.723100       0.000100
     1273.804200       0.000100
     1273.885400       0.000100
     1273.966500       0.000100
     1274.047600       0.000100
     1274.128800       0.000100
     1274.210000       0.000100
     1274.291200       0.000200
     1274.372400       0.000200
     1274.453600       0.000200
     1274.534800       0.000200
     1274.616000       0.000200
     1274.697300       0.000200
     1274.778500       0.000200
     1274.859800       0.000300
     1274.941000       0.000300
     1275.022300       0.000300
     1275.103600       0.000300
     1275.184900       0.000300
     1275.266200       0.000300
     1275.347500       0.000300
     1275.428900       0.000400
     1275.510200       0.000400
     1275.591600       0.000400
     1275.672900       0.000400
     1275.754300       0.000400
     1275.835700       0.000400
     1275.917100       0.000400
     1275.998500       0.000400
     1276.079900       0.000400
     1276.161300       0.000500
     1276.242700       0.000500
     1276.324200       0.000500
     1276.405600       0.000500
     1276.487100       0.000500
     1276.568600       0.000500
     1276.650100       0.000500
     1276.731600       0.000500
     1276.813100       0.000500
     1276.894600       0.000500
     1276.976100       0.000500
     1277.057700       0.000500
     1277.139200       0.000500
     1277.220800       0.000500
     1277.302300       0.000400
     1277.383900       0.000400
     1277.465500       0.000400
     1277.547100       0.000400
     1277.628700       0.000400
     1277.710300       0.000400
     1277.792000       0.000400
     1277.873600       0.000400
     1277.955300       0.000400
     1278.036900       0.000300
     1278.118600       0.000300
     1278.200300       0.000300
     1278.282000       0.000300
     1278.363700       0.000300
     1278.445400       0.000300
     1278.527100       0.000300
     1278.608900       0.000200
     1278.690600       0.000200
     1278.772400       0.000200
     1278.854100       0.000200
     1278.935900       0.000200
     1279.017700       0.000200
     1279.099500       0.000100
     1279.181300       0.000100
     1279.263100       0.000100
     1279.345000       0.000100
     1279.426800       0.000100
     1279.508700       0.000100
     1279.590500       0.000100
     1279.672400       0.000100
     1279.754300       0.000000
     1279.836200       0.000000
     1279.918100       0.000000
     1280.000000       0.000000
     1280.081900       0.000000
     1280.163900       0.000000
     1280.245800       0.000000
     1280.327800       0.000000
     1280.409700       0.000000
     1280.491700       0.000000
     1280.573700       0.000000
     1280.655700       0.000000
     1280.737700       0.000000
     1280.819700       0.000000
     1280.901800       0.000000
     1280.983800       0.000000
     1281.065800       0.000000
     1281.147900       0.000000
     1281.230000       0.000100
     1281.312100       0.000100
     1281.394200       0.000100
     1281.476300       0.000100
     1281.558400       0.000100
     1281.640500       0.000100
     1281.722600       0.000100
     1281.804800       0.000100
     1281.886900       0.000200
     1281.969100       0.000200
     1282.051300       0.000200
     1282.133500       0.000200
     1282.215700       0.000200
     1282.297900       0.000200
     1282.380100       0.000300
     1282.462300       0.000300
     1282.544600       0.000300
     1282.626800       0.000300
     1282.709100       0.000300
     1282.791400       0.000300
     1282.873600       0.000400
     1282.955900       0.000400
     1283.038200       0.000400
     1283.120500       0.000400
     1283.202900       0.000400
     1283.285200       0.000400
     1283.367600       0.000500
     1283.449900       0.000500
     1283.532300       0.000500
     1283.614700       0.000500
     1283.697000       0.000500
     1283.779400       0.000500
     1283.861900       0.000500
     1283.944300       0.000500
     1284.026700       0.000500
     1284.109100       0.000500
     1284.191600       0.000500
     1284.274100       0.000600
     1284.356500       0.000600
     1284.439000       0.000600
     1284.521500       0.000500
     1284.604000       0.000500
     1284.686500       0.000500
     1284.769100       0.000500
     1284.851600       0.000500
     1284.934100       0.000500
     1285.016700       0.000500
     1285.099300       0.000500
     1285.181900       0.000500
     1285.264400       0.000500
     1285.347000       0.000500
     1285.429700       0.000500
     1285.512300       0.000400
     1285.594900       0.000400
     1285.677600       0.000400
     1285.760200       0.000400
     1285.842900       0.000400
     1285.925500       0.000400
     1286.008200       0.000300
     1286.090900       0.000300
     1286.173600       0.000300
     1286.256400       0.000300
     1286.339100       0.000300
     1286.421800       0.000200
     1286.504600       0.000200
     1286.587300       0.000200
     1286.670100       0.000200
     1286.752900       0.000200
     1286.835700       0.000200
     1286.918500       0.000100
     1287.001300       0.000100
     1287.084100       0.000100
     1287.166900       0.000100
     1287.249800       0.000100
     1287.332600       0.000100
     1287.415500       0.000100
     1287.498400       0.000000
     1287.581300       0.000000
     1287.664200       0.000000
     1287.747100       0.000000
     1287.830000       0.000000
     1287.912900       0.000000
     1287.995900       0.000000
     1288.078800       0.000000
     1288.161800       0.000000
     1288.244800       0.000000
     1288.327800       0.000000
     1288.410700       0.000000
     1288.493800       0.000000
     1288.576800       0.000000
     1288.659800       0.000000
     1288.742800       0.000000
     1288.825900       0.000000
     1288.908900       0.000100
     1288.992000       0.000100
     1289.075100       0.000100
     1289.158200       0.000100
     1289.241300       0.000100
     1289.324400       0.000100
     1289.407500       0.000100
     1289.490700       0.000200
     1289.573800       0.000200
     1289.657000       0.000200
     1289.740100       0.000200
     1289.823300       0.000200
     1289.906500       0.000300
     1289.989700       0.000300
     1290.072900       0.000300
     1290.156100       0.000300
     1290.239300       0.000300
     1290.322600       0.000400
     1290.405800       0.000400
     1290.489100       0.000400
     1290.572400       0.000400
     1290.655700       0.000400
     1290.738900       0.000500
     1290.822300       0.000500
     1290.905600       0.000500
     1290.988900       0.000500
     1291.072200       0.000500
     1291.155600       0.000600
     1291.238900       0.000600
     1291.322300       0.000600
     1291.405700       0.000600
     1291.489100       0.000600
     1291.572500       0.000600
     1291.655900       0.000600
     1291.739300       0.000600
     1291.822800       0.000600
     1291.906200       0.000600
     1291.989700       0.000600
     1292.073100       0.000600
     1292.156600       0.000600
     1292.240100       0.000600
     1292.323600       0.000600
     1292.407100       0.000600
     1292.490600       0.000600
     1292.574200       0.000600
     1292.657700       0.000600
     1292.741300       0.000600
     1292.824800       0.000600
     1292.908400       0.000600
     1292.992000       0.000600
     1293.075600       0.000500
     1293.159200       0.000500
     1293.242800       0.000500
     1293.326400       0.000500
     1293.410100       0.000500
     1293.493700       0.000400
     1293.577400       0.000400
     1293.661100       0.000400
     1293.744700       0.000400
     1293.828400       0.000400
     1293.912100       0.000300
     1293.995900       0.000300
     1294.079600       0.000300
     1294.163300       0.000300
     1294.247100       0.000300
     1294.330800       0.000200
     1294.414600       0.000200
     1294.498400       0.000200
     1294.582200       0.000200
     1294.666000       0.000200
     1294.749800       0.000100
     1294.833600       0.000100
     1294.917400       0.000100
     1295.001300       0.000100
     1295.085200       0.000100
     1295.169000       0.000100
     1295.252900       0.000100
     1295.336800       0.000000
     1295.420700       0.000000
     1295.504600       0.000000
     1295.588500       0.000000
     1295.672500       0.000000
     1295.756400       0.000000
     1295.840400       0.000000
     1295.924300       0.000000
     1296.008300       0.000000
     1296.092300       0.000000
     1296.176300       0.000000
     1296.260300       0.000000
     1296.344300       0.000000
     1296.428300       0.000000
     1296.512400       0.000000
     1296.596400       0.000100
     1296.680500       0.000100
     1296.764600       0.000100
     1296.848700       0.000100
     1296.932800       0.000100
     1297.016900       0.000100
     1297.101000       0.000200
     1297.185100       0.000200
     1297.269200       0.000200
     1297.353400       0.000200
     1297.437600       0.000200
     1297.521700       0.000300
     1297.605900       0.000300
     1297.690100       0.000300
     1297.774300       0.000300
     1297.858500       0.000400
     1297.942800       0.000400
     1298.027000       0.000400
     1298.111200       0.000400
     1298.195500       0.000500
     1298.279800       0.000500
     1298.364100       0.000500
     1298.448400       0.000500
     1298.532700       0.000500
     1298.617000       0.000600
     1298.701300       0.000600
     1298.785600       0.000600
     1298.870000       0.000600
     1298.954300       0.000600
     1299.038700       0.000700
     1299.123100       0.000700
     1299.207500       0.000700
     1299.291900       0.000700
     1299.376300       0.000700
     1299.460700       0.000700
     1299.545200       0.000700
     1299.629600       0.000700
     1299.714100       0.000700
     1299.798500       0.000700
     1299.883000       0.000700
     1299.967500       0.000700
     1300.052000       0.000700
     1300.136500       0.000700
     1300.221000       0.000700
     1300.305600       0.000700
     1300.390100       0.000700
     1300.474700       0.000700
     1300.559200       0.000600
     1300.643800       0.000600
     1300.728400       0.000600
     1300.813000       0.000600
     1300.897600       0.000600
     1300.982200       0.000500
     1301.066900       0.000500
     1301.151500       0.000500
     1301.236200       0.000500
     1301.320800       0.000500
     1301.405500       0.000400
     1301.490200       0.000400
     1301.574900       0.000400
     1301.659600       0.000400
     1301.744300       0.000300
     1301.829100       0.000300
     1301.913800       0.000300
     1301.998600       0.000300
     1302.083300       0.000200
     1302.168100       0.000200
     1302.252900       0.000200
     1302.337700       0.000200
     1302.422500       0.000200
     1302.507300       0.000100
     1302.592200       0.000100
     1302.677000       0.000100
     1302.761900       0.000100
     1302.846700       0.000100
     1302.931600       0.000100
     1303.016500       0.000000
     1303.101400       0.000000
     1303.186300       0.000000
     1303.271200       0.000000
     1303.356100       0.000000
     1303.441100       0.000000
     1303.526000       0.000000
     1303.611000       0.000000
     1303.696000       0.000000
     1303.781000       0.000000
     1303.866000       0.000000
     1303.951000       0.000000
     1304.036000       0.000000
     1304.121000       0.000000
     1304.206100       0.000100
     1304.291100       0.000100
     1304.376200       0.000100
     1304.461300       0.000100
     1304.546300       0.000100
     1304.631400       0.000200
     1304.716600       0.000200
     1304.801700       0.000200
     1304.886800       0.000200
     1304.971900       0.000300
     1305.057100       0.000300
     1305.142300       0.000300
     1305.227400       0.000300
     1305.312600       0.000400
     1305.397800       0.000400
     1305.483000       0.000400
     1305.568200       0.000400
     1305.653500       0.000500
     1305.738700       0.000500
     1305.824000       0.000500
     1305.909200       0.000600
     1305.994500       0.000600
     1306.079800       0.000600
     1306.165100       0.000600
     1306.250400       0.000700
     1306.335700       0.000700
     1306.421100       0.000700
     1306.506400       0.000700
     1306.591800       0.000800
     1306.677100       0.000800
     1306.762500       0.000800
     1306.847900       0.000800
     1306.933300       0.000800
     1307.018700       0.000800
     1307.104100       0.000800
     1307.189500       0.000900
     1307.275000       0.000900
     1307.360400       0.000900
     1307.445900       0.000900
     1307.531400       0.000900
     1307.616900       0.000900
     1307.702400       0.000900
     1307.787900       0.000900
     1307.873400       0.000900
     1307.958900       0.000800
     1308.044500       0.000800
     1308.130000       0.000800
     1308.215600       0.000800
     1308.301200       0.000800
     1308.386800       0.000800
     1308.472400       0.000700
     1308.558000       0.000700
     1308.643600       0.000700
     1308.729200       0.000700
     1308.814900       0.000600
     1308.900500       0.000600
     1308.986200       0.000600
     1309.071900       0.000600
     1309.157600       0.000500
     1309.243300       0.000500
     1309.329000       0.000500
     1309.414700       0.000400
     1309.500400       0.000400
     1309.586200       0.000400
     1309.671900       0.000400
     1309.757700       0.000300
     1309.843500       0.000300
     1309.929300       0.000300
     1310.015100       0.000200
     1310.100900       0.000200
     1310.186700       0.000200
     1310.272500       0.000200
     1310.358400       0.000100
     1310.444200       0.000100
     1310.530100       0.000100
     1310.616000       0.000100
     1310.701900       0.000100
     1310.787800       0.000100
     1310.873700       0.000000
     1310.959600       0.000000
     1311.045600       0.000000
     1311.131500       0.000000
     1311.217500       0.000000
     1311.303400       0.000000
     1311.389400       0.000000
     1311.475400       0.000000
     1311.561400       0.000000
     1311.647400       0.000000
     1311.733500       0.000000
     1311.819500       0.000000
     1311.905500       0.000000
     1311.991600       0.000100
     1312.077700       0.000100
     1312.163800       0.000100
     1312.249900       0.000100
     1312.336000       0.000100
     1312.422100       0.000200
     1312.508200       0.000200
     1312.594300       0.000200
     1312.680500       0.000200
     1312.766700       0.000300
     1312.852800       0.000300
     1312.939000       0.000300
     1313.025200       0.000400
     1313.111400       0.000400
     1313.197600       0.000400
     1313.283900       0.000500
     1313.370100       0.000500
     1313.456400       0.000500
     1313.542600       0.000500
     1313.628900       0.000600
     1313.715200       0.000600
     1313.801500       0.000600
     1313.887800       0.000700
     1313.974100       0.000700
     1314.060400       0.000700
     1314.146800       0.000700
     1314.233100       0.000800
     1314.319500       0.000800
     1314.405900       0.000800
     1314.492300       0.000800
     1314.578700       0.000800
     1314.665100       0.000900
     1314.751500       0.000900
     1314.837900       0.000900
     1314.924400       0.000900
     1315.010800       0.000900
     1315.097300       0.000900
     1315.183800       0.000900
     1315.270300       0.000900
     1315.356800       0.000900
     1315.443300       0.000900
     1315.529800       0.000900
     1315.616400       0.000900
     1315.702900       0.000900
     1315.789500       0.000900
     1315.876000       0.000800
     1315.962600       0.000800
     1316.049200       0.000800
     1316.135800       0.000800
     1316.222400       0.000700
     1316.309100       0.000700
     1316.395700       0.000700
     1316.482400       0.000700
     1316.569000       0.000600
     1316.655700       0.000600
     1316.742400       0.000600
     1316.829100       0.000600
     1316.915800       0.000500
     1317.002500       0.000500
     1317.089200       0.000500
     1317.176000       0.000400
     1317.262700       0.000400
     1317.349500       0.000400
     1317.436300       0.000300
     1317.523100       0.000300
     1317.609900       0.000300
     1317.696700       0.000300
     1317.783500       0.000200
     1317.870300       0.000200
     1317.957200       0.000200
     1318.044000       0.000100
     1318.130900       0.000100
     1318.217800       0.000100
     1318.304700       0.000100
     1318.391600       0.000100
     1318.478500       0.000000
     1318.565400       0.000000
     1318.652300       0.000000
     1318.739300       0.000000
     1318.826200       0.000000
     1318.913200       0.000000
     1319.000200       0.000000
     1319.087200       0.000000
     1319.174200       0.000000
     1319.261200       0.000000
     1319.348200       0.000000
     1319.435300       0.000000
     1319.522300       0.000000
     1319.609400       0.000100
     1319.696500       0.000100
     1319.783600       0.000100
     1319.870700       0.000100
     1319.957800       0.000100
     1320.044900       0.000200
     1320.132000       0.000200
     1320.219200       0.000200
     1320.306300       0.000300
     1320.393500       0.000300
     1320.480700       0.000300
     1320.567800       0.000400
     1320.655000       0.000400
     1320.742300       0.000400
     1320.829500       0.000500
     1320.916700       0.000500
     1321.004000       0.000500
     1321.091200       0.000600
     1321.178500       0.000600
     1321.265800       0.000600
     1321.353100       0.000700
     1321.440400       0.000700
     1321.527700       0.000700
     1321.615000       0.000800
     1321.702400       0.000800
     1321.789700       0.000800
     1321.877100       0.000800
     1321.964400       0.000900
     1322.051800       0.000900
     1322.139200       0.000900
     1322.226600       0.000900
     1322.314000       0.001000
     1322.401500       0.001000
     1322.488900       0.001000
     1322.576400       0.001000
     1322.663800       0.001000
     1322.751300       0.001000
     1322.838800       0.001000
     1322.926300       0.001000
     1323.013800       0.001000
     1323.101300       0.001000
     1323.188900       0.001000
     1323.276400       0.001000
     1323.364000       0.001000
     1323.451600       0.001000
     1323.539100       0.001000
     1323.626700       0.000900
     1323.714300       0.000900
     1323.802000       0.000900
     1323.889600       0.000900
     1323.977200       0.000800
     1324.064900       0.000800
     1324.152500       0.000800
     1324.240200       0.000800
     1324.327900       0.000700
     1324.415600       0.000700
     1324.503300       0.000700
     1324.591000       0.000600
     1324.678800       0.000600
     1324.766500       0.000600
     1324.854300       0.000500
     1324.942000       0.000500
     1325.029800       0.000400
     1325.117600       0.000400
     1325.205400       0.000400
     1325.293200       0.000300
     1325.381000       0.000300
     1325.468900       0.000300
     1325.556700       0.000200
     1325.644600       0.000200
     1325.732500       0.000200
     1325.820400       0.000200
     1325.908200       0.000100
     1325.996200       0.000100
     1326.084100       0.000100
     1326.172000       0.000100
     1326.259900       0.000100
     1326.347900       0.000000
     1326.435900       0.000000
     1326.523800       0.000000
     1326.611800       0.000000
     1326.699800       0.000000
     1326.787800       0.000000
     1326.875900       0.000000
     1326.963900       0.000000
     1327.052000       0.000000
     1327.140000       0.000000
     1327.228100       0.000000
     1327.316200       0.000100
     1327.404300       0.000100
     1327.492400       0.000100
     1327.580500       0.000100
     1327.668600       0.000100
     1327.756800       0.000200
     1327.844900       0.000200
     1327.933100       0.000200
     1328.021200       0.000300
     1328.109400       0.000300
     1328.197600       0.000300
     1328.285800       0.000300
     1328.374100       0.000400
     1328.462300       0.000400
     1328.550600       0.000500
     1328.638800       0.000500
     1328.727100       0.000500
     1328.815400       0.000600
     1328.903700       0.000600
     1328.992000       0.000600
     1329.080300       0.000700
     1329.168600       0.000700
     1329.256900       0.000700
     1329.345300       0.000800
     1329.433700       0.000800
     1329.522000       0.000800
     1329.610400       0.000900
     1329.698800       0.000900
     1329.787200       0.000900
     1329.875700       0.000900
     1329.964100       0.001000
     1330.052500       0.001000
     1330.141000       0.001000
     1330.229500       0.001000
     1330.317900       0.001000
     1330.406400       0.001000
     1330.494900       0.001000
     1330.583500       0.001000
     1330.672000       0.001000
     1330.760500       0.001000
     1330.849100       0.001000
     1330.937600       0.001000
     1331.026200       0.001000
     1331.114800       0.001000
     1331.203400       0.001000
     1331.292000       0.001000
     1331.380600       0.000900
     1331.469300       0.000900
     1331.557900       0.000900
     1331.646600       0.000800
     1331.735300       0.000800
     1331.823900       0.000800
     1331.912600       0.000800
     1332.001300       0.000700
     1332.090000       0.000700
     1332.178800       0.000700
     1332.267500       0.000600
     1332.356300       0.000600
     1332.445000       0.000500
     1332.533800       0.000500
     1332.622600       0.000500
     1332.711400       0.000400
     1332.800200       0.000400
     1332.889000       0.000400
     1332.977900       0.000300
     1333.066700       0.000300
     1333.155600       0.000300
     1333.244500       0.000200
     1333.333300       0.000200
     1333.422200       0.000200
     1333.511100       0.000100
     1333.600100       0.000100
     1333.689000       0.000100
     1333.777900       0.000100
     1333.866900       0.000100
     1333.955800       0.000000
     1334.044800       0.000000
     1334.133800       0.000000
     1334.222800       0.000000
     1334.311800       0.000000
     1334.400900       0.000000
     1334.489900       0.000000
     1334.578900       0.000000
     1334.668000       0.000000
     1334.757100       0.000000
     1334.846200       0.000000
     1334.935300       0.000100
     1335.024400       0.000100
     1335.113500       0.000100
     1335.202600       0.000100
     1335.291800       0.000200
     1335.380900       0.000200
     1335.470100       0.000200
     1335.559300       0.000300
     1335.648500       0.000300
     1335.737700       0.000300
     1335.826900       0.000400
     1335.916100       0.000400
     1336.005300       0.000400
     1336.094600       0.000500
     1336.183900       0.000500
     1336.273100       0.000600
     1336.362400       0.000600
     1336.451700       0.000700
     1336.541000       0.000700
     1336.630400       0.000700
     1336.719700       0.000800
     1336.809000       0.000800
     1336.898400       0.000900
     1336.987800       0.000900
     1337.077100       0.000900
     1337.166500       0.001000
     1337.256000       0.001000
     1337.345400       0.001000
     1337.434800       0.001100
     1337.524200       0.001100
     1337.613700       0.001100
     1337.703200       0.001200
     1337.792600       0.001200
     1337.882100       0.001200
     1337.971600       0.001200
     1338.061100       0.001200
     1338.150700       0.001200
     1338.240200       0.001200
     1338.329800       0.001200
     1338.419300       0.001200
     1338.508900       0.001200
     1338.598500       0.001200
     1338.688100       0.001200
     1338.777700       0.001200
     1338.867300       0.001200
     1338.957000       0.001200
     1339.046600       0.001100
     1339.136300       0.001100
     1339.225900       0.001100
     1339.315600       0.001000
     1339.405300       0.001000
     1339.495000       0.001000
     1339.584700       0.000900
     1339.674500       0.000900
     1339.764200       0.000900
     1339.854000       0.000800
     1339.943700       0.000800
     1340.033500       0.000700
     1340.123300       0.000700
     1340.213100       0.000600
     1340.302900       0.000600
     1340.392700       0.000600
     1340.482600       0.000500
     1340.572400       0.000500
     1340.662300       0.000400
     1340.752200       0.000400
     1340.842000       0.000300
     1340.931900       0.000300
     1341.021900       0.000300
     1341.111800       0.000200
     1341.201700       0.000200
     1341.291700       0.000200
     1341.381600       0.000100
     1341.471600       0.000100
     1341.561600       0.000100
     1341.651600       0.000100
     1341.741600       0.000000
     1341.831600       0.000000
     1341.921600       0.000000
     1342.011700       0.000000
     1342.101700       0.000000
     1342.191800       0.000000
     1342.281900       0.000000
     1342.372000       0.000000
     1342.462100       0.000000
     1342.552200       0.000000
     1342.642300       0.000100
     1342.732500       0.000100
     1342.822600       0.000100
     1342.912800       0.000100
     1343.003000       0.000200
     1343.093100       0.000200
     1343.183300       0.000200
     1343.273600       0.000300
     1343.363800       0.000300
     1343.454000       0.000300
     1343.544300       0.000400
     1343.634500       0.000400
     1343.724800       0.000500
     1343.815100       0.000500
     1343.905400       0.000600
     1343.995700       0.000600
     1344.086000       0.000600
     1344.176400       0.000700
     1344.266700       0.000700
     1344.357100       0.000800
     1344.447400       0.000800
     1344.537800       0.000900
     1344.628200       0.000900
     1344.718600       0.001000
     1344.809000       0.001000
     1344.899500       0.001000
     1344.989900       0.001100
     1345.080400       0.001100
     1345.170800       0.001200
     1345.261300       0.001200
     1345.351800       0.001200
     1345.442300       0.001200
     1345.532800       0.001300
     1345.623400       0.001300
     1345.713900       0.001300
     1345.804500       0.001300
     1345.895000       0.001300
     1345.985600       0.001300
     1346.076200       0.001300
     1346.166800       0.001300
     1346.257400       0.001300
     1346.348000       0.001300
     1346.438700       0.001300
     1346.529300       0.001300
     1346.620000       0.001300
     1346.710700       0.001200
     1346.801300       0.001200
     1346.892000       0.001200
     1346.982800       0.001100
     1347.073500       0.001100
     1347.164200       0.001100
     1347.255000       0.001000
     1347.345700       0.001000
     1347.436500       0.000900
     1347.527300       0.000900
     1347.618100       0.000900
     1347.708900       0.000800
     1347.799700       0.000800
     1347.890600       0.000700
     1347.981400       0.000700
     1348.072300       0.000600
     1348.163100       0.000600
     1348.254000       0.000500
     1348.344900       0.000500
     1348.435800       0.000400
     1348.526700       0.000400
     1348.617700       0.000400
     1348.708600       0.000300
     1348.799600       0.000300
     1348.890500       0.000200
     1348.981500       0.000200
     1349.072500       0.000200
     1349.163500       0.000100
     1349.254500       0.000100
     1349.345600       0.000100
     1349.436600       0.000100
     1349.527700       0.000000
     1349.618700       0.000000
     1349.709800       0.000000
     1349.800900       0.000000
     1349.892000       0.000000
     1349.983100       0.000000
     1350.074300       0.000000
     1350.165400       0.000000
     1350.256500       0.000000
     1350.347700       0.000100
     1350.438900       0.000100
     1350.530100       0.000100
     1350.621300       0.000100
     1350.712500       0.000200
     1350.803700       0.000200
     1350.895000       0.000200
     1350.986200       0.000300
     1351.077500       0.000300
     1351.168800       0.000400
     1351.260000       0.000400
     1351.351400       0.000500
     1351.442700       0.000500
     1351.534000       0.000600
     1351.625300       0.000600
     1351.716700       0.000700
     1351.808000       0.000700
     1351.899400       0.000800
     1351.990800       0.000800
     1352.082200       0.000900
     1352.173600       0.000900
     1352.265000       0.001000
     1352.356500       0.001000
     1352.447900       0.001000
     1352.539400       0.001100
     1352.630900       0.001100
     1352.722400       0.001200
     1352.813900       0.001200
     1352.905400       0.001200
     1352.996900       0.001300
     1353.088400       0.001300
     1353.180000       0.001300
     1353.271500       0.001400
     1353.363100       0.001400
     1353.454700       0.001400
     1353.546300       0.001400
     1353.637900       0.001400
     1353.729500       0.001400
     1353.821200       0.001400
     1353.912800       0.001400
     1354.004500       0.001400
     1354.096100       0.001400
     1354.187800       0.001400
     1354.279500       0.001400
     1354.371200       0.001300
     1354.463000       0.001300
     1354.554700       0.001300
     1354.646400       0.001200
     1354.738200       0.001200
     1354.830000       0.001200
     1354.921800       0.001100
     1355.013600       0.001100
     1355.105400       0.001000
     1355.197200       0.001000
     1355.289000       0.000900
     1355.380900       0.000900
     1355.472700       0.000800
     1355.564600       0.000800
     1355.656500       0.000700
     1355.748400       0.000700
     1355.840300       0.000600
     1355.932200       0.000600
     1356.024100       0.000500
     1356.116100       0.000500
     1356.208000       0.000400
     1356.300000       0.000400
     1356.392000       0.000300
     1356.484000       0.000300
     1356.576000       0.000300
     1356.668000       0.000200
     1356.760100       0.000200
     1356.852100       0.000100
     1356.944200       0.000100
     1357.036200       0.000100
     1357.128300       0.000100
     1357.220400       0.000100
     1357.312500       0.000000
     1357.404600       0.000000
     1357.496800       0.000000
     1357.588900       0.000000
     1357.681100       0.000000
     1357.773300       0.000000
     1357.865400       0.000000
     1357.957600       0.000100
     1358.049800       0.000100
     1358.142100       0.000100
     1358.234300       0.000100
     1358.326500       0.000200
     1358.418800       0.000200
     1358.511100       0.000300
     1358.603400       0.000300
     1358.695700       0.000400
     1358.788000       0.000400
     1358.880300       0.000500
     1358.972600       0.000500
     1359.065000       0.000600
     1359.157300       0.000600
     1359.249700       0.000700
     1359.342100       0.000700
     1359.434500       0.000800
     1359.526900       0.000900
     1359.619300       0.000900
     1359.711700       0.001000
     1359.804200       0.001000
     1359.896600       0.001100
     1359.989100       0.001100
     1360.081600       0.001200
     1360.174100       0.001300
     1360.266600       0.001300
     1360.359100       0.001400
     1360.451700       0.001400
     1360.544200       0.001400
     1360.636800       0.001500
     1360.729400       0.001500
     1360.821900       0.001600
     1360.914500       0.001600
     1361.007100       0.001600
     1361.099800       0.001600
     1361.192400       0.001700
     1361.285100       0.001700
     1361.377700       0.001700
     1361.470400       0.001700
     1361.563100       0.001700
     1361.655800       0.001700
     1361.748500       0.001700
     1361.841200       0.001700
     1361.933900       0.001600
     1362.026700       0.001600
     1362.119500       0.001600
     1362.212200       0.001500
     1362.305000       0.001500
     1362.397800       0.001500
     1362.490600       0.001400
     1362.583500       0.001400
     1362.676300       0.001300
     1362.769100       0.001300
     1362.862000       0.001200
     1362.954900       0.001200
     1363.047800       0.001100
     1363.140700       0.001000
     1363.233600       0.001000
     1363.326500       0.000900
     1363.419500       0.000900
     1363.512400       0.000800
     1363.605400       0.000700
     1363.698300       0.000700
     1363.791300       0.000600
     1363.884300       0.000600
     1363.977400       0.000500
     1364.070400       0.000500
     1364.163400       0.000400
     1364.256500       0.000400
     1364.349500       0.000300
     1364.442600       0.000300
     1364.535700       0.000200
     1364.628800       0.000200
     1364.721900       0.000200
     1364.815100       0.000100
     1364.908200       0.000100
     1365.001400       0.000100
     1365.094500       0.000100
     1365.187700       0.000100
     1365.280900       0.000100
     1365.374100       0.000100
     1365.467300       0.000100
     1365.560600       0.000100
     1365.653800       0.000100
     1365.747100       0.000100
     1365.840300       0.000100
     1365.933600       0.000200
     1366.026900       0.000200
     1366.120200       0.000200
     1366.213500       0.000300
     1366.306900       0.000300
     1366.400200       0.000400
     1366.493600       0.000400
     1366.586900       0.000500
     1366.680300       0.000500
     1366.773700       0.000600
     1366.867100       0.000700
     1366.960600       0.000700
     1367.054000       0.000800
     1367.147400       0.000800
     1367.240900       0.000900
     1367.334400       0.001000
     1367.427900       0.001000
     1367.521400       0.001100
     1367.614900       0.001100
     1367.708400       0.001200
     1367.801900       0.001300
     1367.895500       0.001300
     1367.989100       0.001400
     1368.082600       0.001400
     1368.176200       0.001500
     1368.269800       0.001500
     1368.363400       0.001600
     1368.457100       0.001600
     1368.550700       0.001700
     1368.644400       0.001700
     1368.738000       0.001700
     1368.831700       0.001800
     1368.925400       0.001800
     1369.019100       0.001800
     1369.112800       0.001800
     1369.206500       0.001800
     1369.300300       0.001800
     1369.394000       0.001800
     1369.487800       0.001800
     1369.581600       0.001800
     1369.675400       0.001700
     1369.769200       0.001700
     1369.863000       0.001700
     1369.956800       0.001700
     1370.050700       0.001600
     1370.144600       0.001600
     1370.238400       0.001500
     1370.332300       0.001500
     1370.426200       0.001400
     1370.520100       0.001400
     1370.614000       0.001300
     1370.708000       0.001300
     1370.801900       0.001200
     1370.895900       0.001200
     1370.989900       0.001100
     1371.083800       0.001000
     1371.177800       0.001000
     1371.271900       0.000900
     1371.365900       0.000900
     1371.459900       0.000800
     1371.554000       0.000800
     1371.648000       0.000700
     1371.742100       0.000600
     1371.836200       0.000600
     1371.930300       0.000500
     1372.024400       0.000500
     1372.118600       0.000500
     1372.212700       0.000400
     1372.306800       0.000400
     1372.401000       0.000300
     1372.495200       0.000300
     1372.589400       0.000300
     1372.683600       0.000300
     1372.777800       0.000200
     1372.872000       0.000200
     1372.966300       0.000200
     1373.060600       0.000200
     1373.154800       0.000200
     1373.249100       0.000300
     1373.343400       0.000300
     1373.437700       0.000300
     1373.532000       0.000300
     1373.626400       0.000400
     1373.720700       0.000400
     1373.815100       0.000400
     1373.909500       0.000500
     1374.003800       0.000500
     1374.098200       0.000600
     1374.192700       0.000600
     1374.287100       0.000700
     1374.381500       0.000800
     1374.476000       0.000800
     1374.570400       0.000900
     1374.664900       0.000900
     1374.759400       0.001000
     1374.853900       0.001100
     1374.948400       0.001100
     1375.043000       0.001200
     1375.137500       0.001300
     1375.232100       0.001300
     1375.326600       0.001400
     1375.421200       0.001500
     1375.515800       0.001500
     1375.610400       0.001600
     1375.705000       0.001700
     1375.799700       0.001700
     1375.894300       0.001800
     1375.989000       0.001800
     1376.083700       0.001900
     1376.178400       0.001900
     1376.273100       0.002000
     1376.367800       0.002000
     1376.462500       0.002000
     1376.557200       0.002100
     1376.652000       0.002100
     1376.746700       0.002100
     1376.841500       0.002100
     1376.936300       0.002100
     1377.031100       0.002100
     1377.125900       0.002100
     1377.220800       0.002100
     1377.315600       0.002100
     1377.410500       0.002100
     1377.505300       0.002000
     1377.600200       0.002000
     1377.695100       0.002000
     1377.790000       0.001900
     1377.884900       0.001900
     1377.979900       0.001800
     1378.074800       0.001800
     1378.169800       0.001700
     1378.264800       0.001700
     1378.359800       0.001600
     1378.454800       0.001600
     1378.549800       0.001500
     1378.644800       0.001400
     1378.739800       0.001400
     1378.834900       0.001300
     1378.930000       0.001200
     1379.025000       0.001200
     1379.120100       0.001100
     1379.215200       0.001100
     1379.310300       0.001000
     1379.405500       0.000900
     1379.500600       0.000900
     1379.595800       0.000800
     1379.690900       0.000800
     1379.786100       0.000700
     1379.881300       0.000700
     1379.976500       0.000600
     1380.071800       0.000600
     1380.167000       0.000600
     1380.262200       0.000500
     1380.357500       0.000500
     1380.452800       0.000500
     1380.548100       0.000500
     1380.643400       0.000500
     1380.738700       0.000500
     1380.834000       0.000500
     1380.929400       0.000500
     1381.024700       0.000500
     1381.120100       0.000500
     1381.215500       0.000600
     1381.310900       0.000600
     1381.406300       0.000600
     1381.501700       0.000700
     1381.597100       0.000700
     1381.692600       0.000800
     1381.788000       0.000800
     1381.883500       0.000900
     1381.979000       0.000900
     1382.074500       0.001000
     1382.170000       0.001000
     1382.265500       0.001100
     1382.361100       0.001200
     1382.456600       0.001200
     1382.552200       0.001300
     1382.647800       0.001400
     1382.743400       0.001500
     1382.839000       0.001500
     1382.934600       0.001600
     1383.030200       0.001700
     1383.125900       0.001700
     1383.221500       0.001800
     1383.317200       0.001800
     1383.412900       0.001900
     1383.508600       0.002000
     1383.604300       0.002000
     1383.700000       0.002100
     1383.795800       0.002100
     1383.891500       0.002200
     1383.987300       0.002200
     1384.083000       0.002200
     1384.178800       0.002300
     1384.274600       0.002300
     1384.370500       0.002300
     1384.466300       0.002300
     1384.562100       0.002300
     1384.658000       0.002400
     1384.753900       0.002300
     1384.849700       0.002300
     1384.945600       0.002300
     1385.041600       0.002300
     1385.137500       0.002300
     1385.233400       0.002200
     1385.329400       0.002200
     1385.425300       0.002200
     1385.521300       0.002100
     1385.617300       0.002100
     1385.713300       0.002000
     1385.809300       0.002000
     1385.905300       0.001900
     1386.001400       0.001800
     1386.097400       0.001800
     1386.193500       0.001700
     1386.289600       0.001600
     1386.385700       0.001600
     1386.481800       0.001500
     1386.577900       0.001500
     1386.674100       0.001400
     1386.770200       0.001300
     1386.866400       0.001300
     1386.962600       0.001200
     1387.058700       0.001100
     1387.154900       0.001100
     1387.251200       0.001000
     1387.347400       0.001000
     1387.443600       0.000900
     1387.539900       0.000900
     1387.636200       0.000800
     1387.732400       0.000800
     1387.828700       0.000700
     1387.925100       0.000700
     1388.021400       0.000700
     1388.117700       0.000700
     1388.214100       0.000600
     1388.310400       0.000600
     1388.406800       0.000600
     1388.503200       0.000600
     1388.599600       0.000600
     1388.696000       0.000700
     1388.792400       0.000700
     1388.888900       0.000700
     1388.985300       0.000800
     1389.081800       0.000800
     1389.178300       0.000800
     1389.274800       0.000900
     1389.371300       0.000900
     1389.467800       0.001000
     1389.564400       0.001100
     1389.660900       0.001100
     1389.757500       0.001200
     1389.854100       0.001300
     1389.950700       0.001400
     1390.047300       0.001400
     1390.143900       0.001500
     1390.240500       0.001600
     1390.337200       0.001700
     1390.433800       0.001700
     1390.530500       0.001800
     1390.627200       0.001900
     1390.723900       0.002000
     1390.820600       0.002100
     1390.917300       0.002100
     1391.014000       0.002200
     1391.110800       0.002300
     1391.207600       0.002400
     1391.304300       0.002400
     1391.401100       0.002500
     1391.497900       0.002500
     1391.594800       0.002600
     1391.691600       0.002600
     1391.788400       0.002700
     1391.885300       0.002700
     1391.982200       0.002800
     1392.079100       0.002800
     1392.176000       0.002800
     1392.272900       0.002800
     1392.369800       0.002800
     1392.466800       0.002800
     1392.563700       0.002800
     1392.660700       0.002800
     1392.757700       0.002800
     1392.854700       0.002800
     1392.951700       0.002800
     1393.048700       0.002700
     1393.145700       0.002700
     1393.242800       0.002600
     1393.339800       0.002600
     1393.436900       0.002500
     1393.534000       0.002500
     1393.631100       0.002400
     1393.728200       0.002400
     1393.825400       0.002300
     1393.922500       0.002200
     1394.019700       0.002200
     1394.116800       0.002100
     1394.214000       0.002000
     1394.311200       0.002000
     1394.408400       0.001900
     1394.505600       0.001800
     1394.602900       0.001800
     1394.700100       0.001700
     1394.797400       0.001600
     1394.894700       0.001600
     1394.992000       0.001500
     1395.089300       0.001500
     1395.186600       0.001400
     1395.283900       0.001400
     1395.381300       0.001300
     1395.478600       0.001300
     1395.576000       0.001300
     1395.673400       0.001200
     1395.770800       0.001200
     1395.868200       0.001200
     1395.965700       0.001200
     1396.063100       0.001200
     1396.160600       0.001200
     1396.258000       0.001200
     1396.355500       0.001200
     1396.453000       0.001200
     1396.550500       0.001300
     1396.648000       0.001300
     1396.745600       0.001300
     1396.843100       0.001400
     1396.940700       0.001400
     1397.038300       0.001500
     1397.135900       0.001600
     1397.233500       0.001600
     1397.331100       0.001700
     1397.428700       0.001800
     1397.526400       0.001900
     1397.624000       0.001900
     1397.721700       0.002000
     1397.819400       0.002100
     1397.917100       0.002200
     1398.014800       0.002300
     1398.112500       0.002400
     1398.210300       0.002400
     1398.308000       0.002500
     1398.405800       0.002600
     1398.503600       0.002700
     1398.601400       0.002800
     1398.699200       0.002900
     1398.797000       0.002900
     1398.894900       0.003000
     1398.992700       0.003100
     1399.090600       0.003200
     1399.188500       0.003200
     1399.286400       0.003300
     1399.384300       0.003400
     1399.482200       0.003400
     1399.580100       0.003400
     1399.678100       0.003500
     1399.776000       0.003500
     1399.874000       0.003600
     1399.972000       0.003600
     1400.070000       0.003600
     1400.168000       0.003600
     1400.266100       0.003600
     1400.364100       0.003600
     1400.462200       0.003600
     1400.560200       0.003600
     1400.658300       0.003500
     1400.756400       0.003500
     1400.854500       0.003500
     1400.952600       0.003400
     1401.050800       0.003400
     1401.148900       0.003300
     1401.247100       0.003300
     1401.345300       0.003200
     1401.443500       0.003100
     1401.541700       0.003100
     1401.639900       0.003000
     1401.738200       0.003000
     1401.836400       0.002900
     1401.934700       0.002800
     1402.032900       0.002800
     1402.131200       0.002700
     1402.229500       0.002600
     1402.327900       0.002600
     1402.426200       0.002500
     1402.524500       0.002400
     1402.622900       0.002400
     1402.721300       0.002300
     1402.819700       0.002300
     1402.918100       0.002200
     1403.016500       0.002200
     1403.114900       0.002100
     1403.213400       0.002100
     1403.311800       0.002000
     1403.410300       0.002000
     1403.508800       0.002000
     1403.607300       0.002000
     1403.705800       0.002000
     1403.804300       0.002000
     1403.902800       0.002000
     1404.001400       0.002000
     1404.100000       0.002000
     1404.198600       0.002000
     1404.297100       0.002100
     1404.395800       0.002100
     1404.494400       0.002100
     1404.593000       0.002200
     1404.691700       0.002200
     1404.790300       0.002300
     1404.889000       0.002400
     1404.987700       0.002400
     1405.086400       0.002500
     1405.185100       0.002600
     1405.283900       0.002700
     1405.382600       0.002800
     1405.481400       0.002800
     1405.580200       0.002900
     1405.678900       0.003000
     1405.777700       0.003100
     1405.876600       0.003200
     1405.975400       0.003300
     1406.074200       0.003400
     1406.173100       0.003500
     1406.272000       0.003500
     1406.370900       0.003600
     1406.469800       0.003700
     1406.568700       0.003800
     1406.667600       0.003900
     1406.766500       0.003900
     1406.865500       0.004000
     1406.964500       0.004100
     1407.063500       0.004100
     1407.162500       0.004200
     1407.261500       0.004200
     1407.360500       0.004300
     1407.459500       0.004300
     1407.558600       0.004300
     1407.657700       0.004400
     1407.756700       0.004400
     1407.855800       0.004400
     1407.954900       0.004400
     1408.054100       0.004400
     1408.153200       0.004400
     1408.252400       0.004400
     1408.351500       0.004300
     1408.450700       0.004300
     1408.549900       0.004300
     1408.649100       0.004200
     1408.748300       0.004200
     1408.847600       0.004100
     1408.946800       0.004100
     1409.046100       0.004000
     1409.145400       0.004000
     1409.244600       0.003900
     1409.344000       0.003800
     1409.443300       0.003800
     1409.542600       0.003700
     1409.642000       0.003600
     1409.741300       0.003600
     1409.840700       0.003500
     1409.940100       0.003400
     1410.039500       0.003400
     1410.138900       0.003300
     1410.238300       0.003300
     1410.337800       0.003200
     1410.437200       0.003200
     1410.536700       0.003100
     1410.636200       0.003100
     1410.735700       0.003000
     1410.835200       0.003000
     1410.934700       0.002900
     1411.034300       0.002900
     1411.133800       0.002900
     1411.233400       0.002900
     1411.333000       0.002900
     1411.432600       0.002900
     1411.532200       0.002900
     1411.631800       0.002900
     1411.731500       0.002900
     1411.831100       0.002900
     1411.930800       0.003000
     1412.030500       0.003000
     1412.130200       0.003100
     1412.229900       0.003100
     1412.329600       0.003200
     1412.429400       0.003300
     1412.529100       0.003300
     1412.628900       0.003400
     1412.728700       0.003500
     1412.828500       0.003600
     1412.928300       0.003700
     1413.028100       0.003800
     1413.128000       0.003900
     1413.227800       0.004000
     1413.327700       0.004100
     1413.427600       0.004200
     1413.527500       0.004300
     1413.627400       0.004400
     1413.727300       0.004500
     1413.827200       0.004600
     1413.927200       0.004700
     1414.027100       0.004800
     1414.127100       0.004900
     1414.227100       0.005000
     1414.327100       0.005100
     1414.427200       0.005200
     1414.527200       0.005300
     1414.627200       0.005400
     1414.727300       0.005500
     1414.827400       0.005500
     1414.927500       0.005600
     1415.027600       0.005700
     1415.127700       0.005700
     1415.227900       0.005800
     1415.328000       0.005800
     1415.428200       0.005900
     1415.528300       0.005900
     1415.628500       0.006000
     1415.728700       0.006000
     1415.829000       0.006000
     1415.929200       0.006000
     1416.029500       0.006000
     1416.129700       0.006000
     1416.230000       0.006000
     1416.330300       0.005900
     1416.430600       0.005900
     1416.530900       0.005900
     1416.631300       0.005900
     1416.731600       0.005800
     1416.832000       0.005800
     1416.932300       0.005800
     1417.032700       0.005700
     1417.133100       0.005700
     1417.233600       0.005600
     1417.334000       0.005600
     1417.434400       0.005600
     1417.534900       0.005500
     1417.635400       0.005500
     1417.735900       0.005400
     1417.836400       0.005400
     1417.936900       0.005400
     1418.037400       0.005300
     1418.138000       0.005300
     1418.238500       0.005300
     1418.339100       0.005200
     1418.439700       0.005200
     1418.540300       0.005200
     1418.640900       0.005200
     1418.741600       0.005200
     1418.842200       0.005200
     1418.942900       0.005200
     1419.043600       0.005200
     1419.144300       0.005200
     1419.245000       0.005200
     1419.345700       0.005300
     1419.446400       0.005300
     1419.547200       0.005400
     1419.647900       0.005400
     1419.748700       0.005500
     1419.849500       0.005500
     1419.950300       0.005600
     1420.051100       0.005700
     1420.152000       0.005800
     1420.252800       0.005900
     1420.353700       0.006000
     1420.454500       0.006100
     1420.555400       0.006200
     1420.656300       0.006300
     1420.757300       0.006400
     1420.858200       0.006500
     1420.959100       0.006600
     1421.060100       0.006700
     1421.161100       0.006800
     1421.262100       0.007000
     1421.363100       0.007100
     1421.464100       0.007200
     1421.565100       0.007300
     1421.666200       0.007400
     1421.767300       0.007500
     1421.868300       0.007600
     1421.969400       0.007700
     1422.070500       0.007800
     1422.171700       0.007900
     1422.272800       0.008000
     1422.373900       0.008100
     1422.475100       0.008200
     1422.576300       0.008200
     1422.677500       0.008300
     1422.778700       0.008400
     1422.879900       0.008400
     1422.981100       0.008500
     1423.082400       0.008500
     1423.183700       0.008500
     1423.284900       0.008600
     1423.386200       0.008600
     1423.487500       0.008600
     1423.588900       0.008600
     1423.690200       0.008500
     1423.791600       0.008500
     1423.892900       0.008500
     1423.994300       0.008500
     1424.095700       0.008400
     1424.197100       0.008400
     1424.298500       0.008300
     1424.400000       0.008300
     1424.501400       0.008200
     1424.602900       0.008200
     1424.704400       0.008100
     1424.805900       0.008100
     1424.907400       0.008000
     1425.008900       0.007900
     1425.110400       0.007900
     1425.212000       0.007800
     1425.313600       0.007800
     1425.415200       0.007700
     1425.516700       0.007600
     1425.618400       0.007600
     1425.720000       0.007500
     1425.821600       0.007500
     1425.923300       0.007400
     1426.025000       0.007400
     1426.126600       0.007400
     1426.228300       0.007300
     1426.330100       0.007300
     1426.431800       0.007300
     1426.533500       0.007300
     1426.635300       0.007300
     1426.737100       0.007300
     1426.838800       0.007300
     1426.940600       0.007400
     1427.042500       0.007400
     1427.144300       0.007400
     1427.246100       0.007500
     1427.348000       0.007600
     1427.449900       0.007600
     1427.551700       0.007700
     1427.653700       0.007800
     1427.755600       0.007900
     1427.857500       0.008000
     1427.959400       0.008200
     1428.061400       0.008300
     1428.163400       0.008400
     1428.265400       0.008500
     1428.367400       0.008700
     1428.469400       0.008800
     1428.571400       0.009000
     1428.673500       0.009100
     1428.775500       0.009300
     1428.877600       0.009400
     1428.979700       0.009600
     1429.081800       0.009700
     1429.183900       0.009900
     1429.286100       0.010000
     1429.388200       0.010200
     1429.490400       0.010300
     1429.592600       0.010500
     1429.694800       0.010600
     1429.797000       0.010800
     1429.899200       0.010900
     1430.001400       0.011100
     1430.103700       0.011200
     1430.205900       0.011300
     1430.308200       0.011400
     1430.410500       0.011500
     1430.512800       0.011600
     1430.615200       0.011700
     1430.717500       0.011800
     1430.819900       0.011900
     1430.922200       0.012000
     1431.024600       0.012100
     1431.127000       0.012100
     1431.229400       0.012200
     1431.331900       0.012200
     1431.434300       0.012200
     1431.536800       0.012200
     1431.639200       0.012300
     1431.741700       0.012300
     1431.844200       0.012300
     1431.946700       0.012300
     1432.049300       0.012300
     1432.151800       0.012300
     1432.254400       0.012200
     1432.356900       0.012200
     1432.459500       0.012200
     1432.562100       0.012200
     1432.664800       0.012200
     1432.767400       0.012100
     1432.870000       0.012100
     1432.972700       0.012100
     1433.075400       0.012100
     1433.178100       0.012000
     1433.280800       0.012000
     1433.383500       0.012000
     1433.486200       0.012000
     1433.589000       0.012000
     1433.691800       0.012000
     1433.794500       0.012000
     1433.897300       0.012000
     1434.000100       0.012000
     1434.103000       0.012000
     1434.205800       0.012000
     1434.308700       0.012000
     1434.411500       0.012000
     1434.514400       0.012100
     1434.617300       0.012100
     1434.720200       0.012200
     1434.823200       0.012300
     1434.926100       0.012300
     1435.029100       0.012400
     1435.132000       0.012500
     1435.235000       0.012600
     1435.338000       0.012700
     1435.441000       0.012900
     1435.544100       0.013000
     1435.647100       0.013100
     1435.750200       0.013200
     1435.853300       0.013400
     1435.956300       0.013500
     1436.059500       0.013700
     1436.162600       0.013800
     1436.265700       0.014000
     1436.368900       0.014200
     1436.472000       0.014300
     1436.575200       0.014500
     1436.678400       0.014600
     1436.781600       0.014800
     1436.884800       0.015000
     1436.988100       0.015100
     1437.091300       0.015300
     1437.194600       0.015500
     1437.297900       0.015600
     1437.401200       0.015800
     1437.504500       0.015900
     1437.607800       0.016100
     1437.711200       0.016200
     1437.814500       0.016400
     1437.917900       0.016500
     1438.021300       0.016600
     1438.124700       0.016700
     1438.228100       0.016800
     1438.331500       0.017000
     1438.435000       0.017000
     1438.538400       0.017100
     1438.641900       0.017200
     1438.745400       0.017300
     1438.848900       0.017300
     1438.952400       0.017400
     1439.056000       0.017400
     1439.159500       0.017500
     1439.263100       0.017500
     1439.366700       0.017500
     1439.470300       0.017500
     1439.573900       0.017600
     1439.677500       0.017600
     1439.781200       0.017600
     1439.884800       0.017600
     1439.988500       0.017600
     1440.092200       0.017600
     1440.195900       0.017600
     1440.299600       0.017600
     1440.403300       0.017600
     1440.507100       0.017600
     1440.610800       0.017600
     1440.714600       0.017600
     1440.818400       0.017600
     1440.922200       0.017600
     1441.026000       0.017600
     1441.129800       0.017600
     1441.233700       0.017600
     1441.337600       0.017600
     1441.441400       0.017700
     1441.545300       0.017700
     1441.649200       0.017700
     1441.753200       0.017800
     1441.857100       0.017900
     1441.961100       0.017900
     1442.065000       0.018000
     1442.169000       0.018100
     1442.273000       0.018200
     1442.377000       0.018300
     1442.481100       0.018400
     1442.585100       0.018600
     1442.689200       0.018700
     1442.793200       0.018900
     1442.897300       0.019100
     1443.001400       0.019200
     1443.105600       0.019400
     1443.209700       0.019600
     1443.313800       0.019900
     1443.418000       0.020100
     1443.522200       0.020300
     1443.626400       0.020600
     1443.730600       0.020800
     1443.834800       0.021000
     1443.939100       0.021300
     1444.043300       0.021600
     1444.147600       0.021800
     1444.251900       0.022100
     1444.356200       0.022300
     1444.460500       0.022600
     1444.564800       0.022900
     1444.669200       0.023200
     1444.773500       0.023400
     1444.877900       0.023700
     1444.982300       0.024000
     1445.086700       0.024200
     1445.191100       0.024500
     1445.295600       0.024700
     1445.400000       0.025000
     1445.504500       0.025200
     1445.609000       0.025500
     1445.713500       0.025700
     1445.818000       0.026000
     1445.922500       0.026200
     1446.027000       0.026400
     1446.131600       0.026600
     1446.236200       0.026800
     1446.340800       0.027000
     1446.445400       0.027200
     1446.550000       0.027300
     1446.654600       0.027500
     1446.759300       0.027600
     1446.863900       0.027800
     1446.968600       0.027900
     1447.073300       0.028000
     1447.178000       0.028100
     1447.282700       0.028200
     1447.387500       0.028300
     1447.492200       0.028400
     1447.597000       0.028500
     1447.701800       0.028600
     1447.806600       0.028700
     1447.911400       0.028800
     1448.016200       0.028900
     1448.121100       0.028900
     1448.225900       0.029000
     1448.330800       0.029100
     1448.435700       0.029100
     1448.540600       0.029200
     1448.645500       0.029300
     1448.750500       0.029400
     1448.855400       0.029400
     1448.960400       0.029500
     1449.065400       0.029600
     1449.170300       0.029700
     1449.275400       0.029800
     1449.380400       0.029900
     1449.485400       0.030000
     1449.590500       0.030100
     1449.695600       0.030200
     1449.800700       0.030300
     1449.905800       0.030500
     1450.010900       0.030600
     1450.116000       0.030700
     1450.221200       0.030900
     1450.326300       0.031100
     1450.431500       0.031200
     1450.536700       0.031400
     1450.641900       0.031600
     1450.747100       0.031800
     1450.852400       0.032000
     1450.957600       0.032300
     1451.062900       0.032500
     1451.168200       0.032700
     1451.273500       0.033000
     1451.378800       0.033200
     1451.484100       0.033500
     1451.589500       0.033800
     1451.694900       0.034000
     1451.800200       0.034300
     1451.905600       0.034600
     1452.011000       0.034900
     1452.116500       0.035200
     1452.221900       0.035500
     1452.327400       0.035800
     1452.432800       0.036100
     1452.538300       0.036400
     1452.643800       0.036800
     1452.749300       0.037100
     1452.854900       0.037400
     1452.960400       0.037800
     1453.066000       0.038100
     1453.171500       0.038500
     1453.277100       0.038800
     1453.382700       0.039100
     1453.488400       0.039500
     1453.594000       0.039900
     1453.699700       0.040200
     1453.805300       0.040600
     1453.911000       0.040900
     1454.016700       0.041300
     1454.122400       0.041700
     1454.228200       0.042000
     1454.333900       0.042400
     1454.439700       0.042800
     1454.545500       0.043200
     1454.651200       0.043500
     1454.757100       0.043900
     1454.862900       0.044300
     1454.968700       0.044700
     1455.074600       0.045000
     1455.180400       0.045400
     1455.286300       0.045800
     1455.392200       0.046200
     1455.498100       0.046600
     1455.604100       0.047000
     1455.710000       0.047400
     1455.816000       0.047800
     1455.922000       0.048200
     1456.028000       0.048600
     1456.134000       0.049000
     1456.240000       0.049400
     1456.346000       0.049900
     1456.452100       0.050300
     1456.558200       0.050700
     1456.664200       0.051100
     1456.770300       0.051600
     1456.876500       0.052000
     1456.982600       0.052500
     1457.088700       0.052900
     1457.194900       0.053400
     1457.301100       0.053800
     1457.407300       0.054300
     1457.513500       0.054700
     1457.619700       0.055200
     1457.725900       0.055700
     1457.832200       0.056200
     1457.938500       0.056600
     1458.044800       0.057100
     1458.151100       0.057600
     1458.257400       0.058100
     1458.363700       0.058600
     1458.470100       0.059100
     1458.576400       0.059600
     1458.682800       0.060200
     1458.789200       0.060700
     1458.895600       0.061200
     1459.002000       0.061700
     1459.108500       0.062200
     1459.214900       0.062700
     1459.321400       0.063300
     1459.427900       0.063800
     1459.534400       0.064300
     1459.640900       0.064800
     1459.747500       0.065300
     1459.854000       0.065800
     1459.960600       0.066300
     1460.067200       0.066800
     1460.173800       0.067400
     1460.280400       0.067800
     1460.387000       0.068300
     1460.493600       0.068800
     1460.600300       0.069300
     1460.707000       0.069800
     1460.813700       0.070300
     1460.920400       0.070700
     1461.027100       0.071200
     1461.133800       0.071600
     1461.240600       0.072100
     1461.347400       0.072500
     1461.454100       0.072900
     1461.560900       0.073400
     1461.667800       0.073800
     1461.774600       0.074200
     1461.881400       0.074600
     1461.988300       0.074900
     1462.095200       0.075300
     1462.202100       0.075700
     1462.309000       0.076000
     1462.415900       0.076400
     1462.522900       0.076700
     1462.629800       0.077100
     1462.736800       0.077400
     1462.843800       0.077700
     1462.950800       0.078100
     1463.057800       0.078400
     1463.164800       0.078700
     1463.271900       0.079000
     1463.378900       0.079400
     1463.486000       0.079700
     1463.593100       0.080000
     1463.700200       0.080400
     1463.807400       0.080700
     1463.914500       0.081000
     1464.021700       0.081400
     1464.128800       0.081700
     1464.236000       0.082100
     1464.343200       0.082400
     1464.450500       0.082800
     1464.557700       0.083200
     1464.665000       0.083600
     1464.772200       0.084000
     1464.879500       0.084400
     1464.986800       0.084800
     1465.094100       0.085200
     1465.201500       0.085700
     1465.308800       0.086100
     1465.416200       0.086600
     1465.523600       0.087100
     1465.631000       0.087600
     1465.738400       0.088100
     1465.845800       0.088700
     1465.953200       0.089200
     1466.060700       0.089800
     1466.168200       0.090400
     1466.275700       0.091000
     1466.383200       0.091600
     1466.490700       0.092200
     1466.598200       0.092900
     1466.705800       0.093500
     1466.813300       0.094200
     1466.920900       0.094900
     1467.028500       0.095600
     1467.136200       0.096400
     1467.243800       0.097100
     1467.351400       0.097900
     1467.459100       0.098700
     1467.566800       0.099500
     1467.674500       0.100300
     1467.782200       0.101100
     1467.889900       0.102000
     1467.997700       0.102900
     1468.105400       0.103800
     1468.213200       0.104700
     1468.321000       0.105600
     1468.428800       0.106500
     1468.536600       0.107500
     1468.644400       0.108500
     1468.752300       0.109400
     1468.860200       0.110500
     1468.968000       0.111500
     1469.076000       0.112500
     1469.183900       0.113600
     1469.291800       0.114700
     1469.399800       0.115800
     1469.507700       0.116900
     1469.615700       0.118000
     1469.723700       0.119200
     1469.831700       0.120300
     1469.939700       0.121500
     1470.047800       0.122700
     1470.155800       0.124000
     1470.263900       0.125200
     1470.372000       0.126400
     1470.480100       0.127700
     1470.588200       0.129000
     1470.696400       0.130300
     1470.804500       0.131600
     1470.912700       0.132900
     1471.020900       0.134300
     1471.129100       0.135600
     1471.237300       0.137000
     1471.345500       0.138300
     1471.453800       0.139700
     1471.562100       0.141100
     1471.670300       0.142500
     1471.778600       0.143900
     1471.887000       0.145400
     1471.995300       0.146800
     1472.103600       0.148300
     1472.212000       0.149700
     1472.320400       0.151200
     1472.428800       0.152700
     1472.537200       0.154200
     1472.645600       0.155600
     1472.754100       0.157100
     1472.862500       0.158600
     1472.971000       0.160200
     1473.079500       0.161700
     1473.188000       0.163200
     1473.296500       0.164700
     1473.405000       0.166300
     1473.513600       0.167800
     1473.622200       0.169300
     1473.730700       0.170900
     1473.839400       0.172400
     1473.948000       0.174000
     1474.056600       0.175500
     1474.165300       0.177100
     1474.273900       0.178600
     1474.382600       0.180200
     1474.491300       0.181700
     1474.600000       0.183300
     1474.708700       0.184800
     1474.817500       0.186300
     1474.926300       0.187900
     1475.035000       0.189400
     1475.143800       0.190900
     1475.252600       0.192500
     1475.361500       0.194000
     1475.470300       0.195500
     1475.579200       0.197000
     1475.688000       0.198500
     1475.796900       0.200000
     1475.905800       0.201500
     1476.014800       0.203000
     1476.123700       0.204400
     1476.232700       0.205900
     1476.341600       0.207300
     1476.450600       0.208800
     1476.559600       0.210200
     1476.668600       0.211600
     1476.777700       0.213000
     1476.886700       0.214400
     1476.995800       0.215700
     1477.104900       0.217100
     1477.214000       0.218400
     1477.323100       0.219800
     1477.432200       0.221100
     1477.541400       0.222400
     1477.650500       0.223700
     1477.759700       0.225000
     1477.868900       0.226300
     1477.978100       0.227500
     1478.087400       0.228800
     1478.196600       0.230000
     1478.305900       0.231300
     1478.415100       0.232600
     1478.524400       0.233800
     1478.633700       0.235100
     1478.743100       0.236300
     1478.852400       0.237600
     1478.961800       0.238900
     1479.071100       0.240100
     1479.180500       0.241400
     1479.289900       0.242700
     1479.399400       0.244000
     1479.508800       0.245300
     1479.618300       0.246700
     1479.727700       0.248000
     1479.837200       0.249400
     1479.946700       0.250800
     1480.056200       0.252200
     1480.165800       0.253600
     1480.275300       0.255000
     1480.384900       0.256500
     1480.494500       0.258000
     1480.604100       0.259500
     1480.713700       0.261000
     1480.823300       0.262600
     1480.933000       0.264200
     1481.042700       0.265800
     1481.152300       0.267500
     1481.262000       0.269200
     1481.371800       0.270900
     1481.481500       0.272700
     1481.591200       0.274500
     1481.701000       0.276300
     1481.810800       0.278100
     1481.920600       0.280000
     1482.030400       0.282000
     1482.140200       0.283900
     1482.250100       0.285900
     1482.359900       0.288000
     1482.469800       0.290000
     1482.579700       0.292200
     1482.689600       0.294300
     1482.799500       0.296500
     1482.909500       0.298700
     1483.019400       0.301000
     1483.129400       0.303300
     1483.239400       0.305600
     1483.349400       0.308000
     1483.459400       0.310400
     1483.569500       0.312900
     1483.679500       0.315400
     1483.789600       0.317900
     1483.899700       0.320500
     1484.009800       0.323100
     1484.119900       0.325700
     1484.230100       0.328400
     1484.340200       0.331200
     1484.450400       0.334000
     1484.560600       0.336800
     1484.670800       0.339700
     1484.781000       0.342600
     1484.891200       0.345500
     1485.001500       0.348500
     1485.111800       0.351600
     1485.222000       0.354700
     1485.332300       0.357800
     1485.442700       0.361000
     1485.553000       0.364100
     1485.663300       0.367400
     1485.773700       0.370600
     1485.884100       0.373900
     1485.994500       0.377200
     1486.104900       0.380500
     1486.215400       0.383900
     1486.325800       0.387200
     1486.436300       0.390600
     1486.546800       0.393900
     1486.657300       0.397300
     1486.767800       0.400700
     1486.878300       0.404100
     1486.988800       0.407500
     1487.099400       0.410900
     1487.210000       0.414300
     1487.320600       0.417700
     1487.431200       0.421000
     1487.541800       0.424400
     1487.652500       0.427700
     1487.763100       0.431000
     1487.873800       0.434300
     1487.984500       0.437600
     1488.095200       0.440900
     1488.206000       0.444100
     1488.316700       0.447300
     1488.427500       0.450500
     1488.538300       0.453600
     1488.649100       0.456700
     1488.759900       0.459700
     1488.870700       0.462700
     1488.981500       0.465600
     1489.092400       0.468600
     1489.203300       0.471400
     1489.314200       0.474300
     1489.425100       0.477000
     1489.536000       0.479800
     1489.647000       0.482500
     1489.757900       0.485200
     1489.868900       0.487900
     1489.979900       0.490500
     1490.090900       0.493100
     1490.201900       0.495700
     1490.313000       0.498200
     1490.424000       0.500700
     1490.535100       0.503200
     1490.646200       0.505700
     1490.757300       0.508200
     1490.868400       0.510600
     1490.979600       0.513000
     1491.090700       0.515500
     1491.201900       0.517900
     1491.313100       0.520200
     1491.424300       0.522600
     1491.535500       0.525000
     1491.646800       0.527300
     1491.758000       0.529700
     1491.869300       0.532000
     1491.980600       0.534400
     1492.091900       0.536700
     1492.203200       0.539100
     1492.314600       0.541500
     1492.425900       0.543800
     1492.537300       0.546200
     1492.648700       0.548600
     1492.760100       0.551000
     1492.871500       0.553400
     1492.983000       0.555800
     1493.094400       0.558200
     1493.205900       0.560600
     1493.317400       0.563100
     1493.428900       0.565500
     1493.540400       0.568000
     1493.652000       0.570500
     1493.763500       0.572900
     1493.875100       0.575400
     1493.986700       0.577900
     1494.098300       0.580400
     1494.209900       0.582900
     1494.321600       0.585400
     1494.433200       0.587900
     1494.544900       0.590400
     1494.656600       0.592900
     1494.768300       0.595400
     1494.880000       0.598000
     1494.991800       0.600500
     1495.103500       0.603000
     1495.215300       0.605600
     1495.327100       0.608100
     1495.438900       0.610700
     1495.550700       0.613200
     1495.662600       0.615700
     1495.774400       0.618300
     1495.886300       0.620800
     1495.998200       0.623400
     1496.110100       0.625900
     1496.222000       0.628400
     1496.334000       0.631000
     1496.445900       0.633500
     1496.557900       0.636000
     1496.669900       0.638500
     1496.781900       0.641000
     1496.893900       0.643500
     1497.006000       0.646000
     1497.118000       0.648500
     1497.230100       0.651000
     1497.342200       0.653400
     1497.454300       0.655900
     1497.566500       0.658300
     1497.678600       0.660700
     1497.790800       0.663100
     1497.902900       0.665500
     1498.015100       0.667800
     1498.127300       0.670200
     1498.239600       0.672500
     1498.351800       0.674700
     1498.464100       0.677000
     1498.576400       0.679200
     1498.688600       0.681400
     1498.801000       0.683500
     1498.913300       0.685700
     1499.025600       0.687700
     1499.138000       0.689800
     1499.250400       0.691800
     1499.362800       0.693800
     1499.475200       0.695800
     1499.587600       0.697700
     1499.700100       0.699500
     1499.812500       0.701400
     1499.925000       0.703200
     1500.037500       0.704900
     1500.150000       0.706600
     1500.262500       0.708300
     1500.375100       0.709900
     1500.487700       0.711400
     1500.600200       0.712900
     1500.712800       0.714400
     1500.825500       0.715900
     1500.938100       0.717300
     1501.050700       0.718600
     1501.163400       0.720000
     1501.276100       0.721300
     1501.388800       0.722600
     1501.501500       0.723800
     1501.614200       0.725100
     1501.727000       0.726300
     1501.839800       0.727600
     1501.952500       0.728800
     1502.065300       0.730100
     1502.178200       0.731300
     1502.291000       0.732600
     1502.403800       0.733800
     1502.516700       0.735100
     1502.629600       0.736400
     1502.742500       0.737700
     1502.855400       0.739000
     1502.968400       0.740400
     1503.081300       0.741700
     1503.194300       0.743100
     1503.307300       0.744600
     1503.420300       0.746100
     1503.533300       0.747600
     1503.646300       0.749200
     1503.759400       0.750800
     1503.872500       0.752400
     1503.985600       0.754200
     1504.098700       0.755900
     1504.211800       0.757800
     1504.324900       0.759700
     1504.438100       0.761700
     1504.551300       0.763700
     1504.664500       0.765800
     1504.777700       0.767900
     1504.890900       0.770100
     1505.004100       0.772300
     1505.117400       0.774500
     1505.230700       0.776800
     1505.344000       0.779000
     1505.457300       0.781300
     1505.570600       0.783600
     1505.684000       0.785800
     1505.797300       0.788100
     1505.910700       0.790300
     1506.024100       0.792500
     1506.137500       0.794700
     1506.250900       0.796900
     1506.364400       0.799000
     1506.477900       0.801000
     1506.591300       0.803000
     1506.704800       0.805000
     1506.818400       0.806900
     1506.931900       0.808700
     1507.045400       0.810500
     1507.159000       0.812200
     1507.272600       0.813800
     1507.386200       0.815300
     1507.499800       0.816700
     1507.613400       0.817900
     1507.727100       0.819100
     1507.840800       0.820200
     1507.954500       0.821100
     1508.068200       0.821900
     1508.181900       0.822600
     1508.295600       0.823100
     1508.409400       0.823500
     1508.523200       0.823800
     1508.636900       0.823900
     1508.750800       0.824000
     1508.864600       0.824000
     1508.978400       0.823800
     1509.092300       0.823600
     1509.206200       0.823300
     1509.320100       0.822900
     1509.434000       0.822500
     1509.547900       0.822000
     1509.661800       0.821400
     1509.775800       0.820800
     1509.889800       0.820100
     1510.003800       0.819400
     1510.117800       0.818700
     1510.231800       0.818000
     1510.345900       0.817200
     1510.459900       0.816500
     1510.574000       0.815700
     1510.688100       0.814900
     1510.802200       0.814100
     1510.916400       0.813400
     1511.030500       0.812600
     1511.144700       0.811900
     1511.258900       0.811300
     1511.373100       0.810600
     1511.487300       0.810000
     1511.601500       0.809500
     1511.715800       0.809000
     1511.830100       0.808600
     1511.944400       0.808300
     1512.058700       0.808100
     1512.173000       0.807900
     1512.287300       0.807800
     1512.401700       0.807800
     1512.516100       0.807800
     1512.630500       0.808000
     1512.744900       0.808200
     1512.859300       0.808500
     1512.973700       0.808800
     1513.088200       0.809200
     1513.202700       0.809700
     1513.317200       0.810300
     1513.431700       0.810900
     1513.546200       0.811600
     1513.660800       0.812400
     1513.775400       0.813200
     1513.889900       0.814100
     1514.004500       0.815100
     1514.119200       0.816100
     1514.233800       0.817200
     1514.348500       0.818300
     1514.463100       0.819600
     1514.577800       0.820800
     1514.692500       0.822200
     1514.807200       0.823600
     1514.922000       0.825000
     1515.036700       0.826500
     1515.151500       0.828100
     1515.266300       0.829700
     1515.381100       0.831300
     1515.495900       0.833000
     1515.610800       0.834800
     1515.725700       0.836600
     1515.840500       0.838500
     1515.955400       0.840400
     1516.070300       0.842300
     1516.185300       0.844300
     1516.300200       0.846300
     1516.415200       0.848300
     1516.530200       0.850400
     1516.645200       0.852500
     1516.760200       0.854700
     1516.875200       0.856800
     1516.990300       0.859000
     1517.105400       0.861200
     1517.220500       0.863400
     1517.335600       0.865600
     1517.450700       0.867900
     1517.565800       0.870100
     1517.681000       0.872300
     1517.796200       0.874600
     1517.911400       0.876800
     1518.026600       0.879100
     1518.141800       0.881300
     1518.257000       0.883500
     1518.372300       0.885700
     1518.487600       0.887900
     1518.602900       0.890100
     1518.718200       0.892300
     1518.833500       0.894400
     1518.948900       0.896500
     1519.064300       0.898600
     1519.179600       0.900600
     1519.295000       0.902600
     1519.410500       0.904600
     1519.525900       0.906600
     1519.641400       0.908500
     1519.756800       0.910300
     1519.872300       0.912200
     1519.987800       0.914000
     1520.103400       0.915700
     1520.218900       0.917400
     1520.334500       0.919000
     1520.450100       0.920600
     1520.565700       0.922200
     1520.681300       0.923700
     1520.796900       0.925200
     1520.912500       0.926500
     1521.028200       0.927900
     1521.143900       0.929200
     1521.259600       0.930400
     1521.375300       0.931600
     1521.491100       0.932700
     1521.606800       0.933700
     1521.722600       0.934700
     1521.838400       0.935600
     1521.954200       0.936500
     1522.070000       0.937300
     1522.185900       0.938000
     1522.301700       0.938700
     1522.417600       0.939200
     1522.533500       0.939800
     1522.649400       0.940200
     1522.765300       0.940600
     1522.881300       0.940900
     1522.997300       0.941100
     1523.113200       0.941300
     1523.229200       0.941400
     1523.345300       0.941300
     1523.461300       0.941300
     1523.577400       0.941100
     1523.693400       0.940800
     1523.809500       0.940500
     1523.925600       0.940100
     1524.041800       0.939600
     1524.157900       0.939100
     1524.274100       0.938500
     1524.390200       0.937900
     1524.506400       0.937100
     1524.622700       0.936400
     1524.738900       0.935600
     1524.855100       0.934700
     1524.971400       0.933900
     1525.087700       0.932900
     1525.204000       0.932000
     1525.320300       0.931000
     1525.436700       0.930000
     1525.553000       0.929000
     1525.669400       0.928000
     1525.785800       0.927000
     1525.902200       0.926000
     1526.018600       0.924900
     1526.135100       0.923900
     1526.251500       0.922900
     1526.368000       0.921900
     1526.484500       0.920900
     1526.601000       0.919900
     1526.717600       0.918900
     1526.834100       0.918000
     1526.950700       0.917100
     1527.067300       0.916200
     1527.183900       0.915300
     1527.300500       0.914500
     1527.417100       0.913800
     1527.533800       0.913100
     1527.650500       0.912400
     1527.767200       0.911800
     1527.883900       0.911200
     1528.000600       0.910700
     1528.117400       0.910200
     1528.234100       0.909700
     1528.350900       0.909300
     1528.467700       0.908900
     1528.584500       0.908600
     1528.701400       0.908200
     1528.818200       0.907900
     1528.935100       0.907700
     1529.052000       0.907500
     1529.168900       0.907300
     1529.285800       0.907100
     1529.402800       0.906900
     1529.519700       0.906800
     1529.636700       0.906700
     1529.753700       0.906600
     1529.870700       0.906600
     1529.987800       0.906500
     1530.104800       0.906500
     1530.221900       0.906500
     1530.339000       0.906400
     1530.456100       0.906500
     1530.573200       0.906500
     1530.690300       0.906500
     1530.807500       0.906500
     1530.924700       0.906600
     1531.041900       0.906600
     1531.159100       0.906700
     1531.276300       0.906700
     1531.393600       0.906800
     1531.510800       0.906800
     1531.628100       0.906900
     1531.745400       0.907000
     1531.862700       0.907100
     1531.980100       0.907200
     1532.097400       0.907300
     1532.214800       0.907400
     1532.332200       0.907500
     1532.449600       0.907700
     1532.567000       0.907800
     1532.684500       0.908000
     1532.802000       0.908200
     1532.919400       0.908500
     1533.036900       0.908700
     1533.154500       0.909000
     1533.272000       0.909300
     1533.389600       0.909600
     1533.507100       0.910000
     1533.624700       0.910400
     1533.742300       0.910900
     1533.860000       0.911300
     1533.977600       0.911800
     1534.095300       0.912400
     1534.212900       0.913000
     1534.330600       0.913600
     1534.448400       0.914300
     1534.566100       0.915100
     1534.683900       0.915900
     1534.801600       0.916700
     1534.919400       0.917600
     1535.037200       0.918600
     1535.155100       0.919600
     1535.272900       0.920600
     1535.390800       0.921700
     1535.508600       0.922900
     1535.626500       0.924100
     1535.744500       0.925400
     1535.862400       0.926700
     1535.980300       0.928000
     1536.098300       0.929400
     1536.216300       0.930800
     1536.334300       0.932300
     1536.452300       0.933800
     1536.570400       0.935300
     1536.688400       0.936900
     1536.806500       0.938500
     1536.924600       0.940100
     1537.042700       0.941800
     1537.160900       0.943500
     1537.279000       0.945200
     1537.397200       0.946900
     1537.515400       0.948700
     1537.633600       0.950400
     1537.751800       0.952200
     1537.870000       0.954000
     1537.988300       0.955800
     1538.106600       0.957600
     1538.224900       0.959400
     1538.343200       0.961200
     1538.461500       0.963000
     1538.579900       0.964800
     1538.698300       0.966600
     1538.816600       0.968400
     1538.935100       0.970200
     1539.053500       0.972000
     1539.171900       0.973800
     1539.290400       0.975500
     1539.408900       0.977200
     1539.527400       0.978900
     1539.645900       0.980600
     1539.764400       0.982200
     1539.883000       0.983800
     1540.001500       0.985400
     1540.120100       0.986900
     1540.238700       0.988300
     1540.357400       0.989700
     1540.476000       0.991000
     1540.594700       0.992200
     1540.713400       0.993400
     1540.832000       0.994500
     1540.950800       0.995500
     1541.069500       0.996400
     1541.188300       0.997200
     1541.307000       0.997900
     1541.425800       0.998600
     1541.544600       0.999100
     1541.663500       0.999500
     1541.782300       0.999800
     1541.901200       0.999900
     1542.020000       1.000000
     1542.138900       0.999900
     1542.257900       0.999700
     1542.376800       0.999400
     1542.495800       0.998900
     1542.614700       0.998200
     1542.733700       0.997400
     1542.852700       0.996500
     1542.971800       0.995400
     1543.090800       0.994100
     1543.209900       0.992700
     1543.329000       0.991200
     1543.448100       0.989600
     1543.567200       0.987800
     1543.686300       0.985900
     1543.805500       0.984000
     1543.924700       0.981900
     1544.043900       0.979800
     1544.163100       0.977600
     1544.282300       0.975300
     1544.401500       0.972900
     1544.520800       0.970600
     1544.640100       0.968100
     1544.759400       0.965700
     1544.878700       0.963200
     1544.998100       0.960700
     1545.117400       0.958200
     1545.236800       0.955700
     1545.356200       0.953200
     1545.475600       0.950700
     1545.595100       0.948200
     1545.714500       0.945800
     1545.834000       0.943400
     1545.953500       0.941000
     1546.073000       0.938700
     1546.192500       0.936500
     1546.312000       0.934300
     1546.431600       0.932300
     1546.551200       0.930300
     1546.670800       0.928400
     1546.790400       0.926600
     1546.910000       0.924900
     1547.029700       0.923300
     1547.149400       0.921800
     1547.269100       0.920400
     1547.388800       0.919000
     1547.508500       0.917800
     1547.628300       0.916600
     1547.748000       0.915600
     1547.867800       0.914600
     1547.987600       0.913600
     1548.107400       0.912800
     1548.227300       0.912000
     1548.347100       0.911300
     1548.467000       0.910600
     1548.586900       0.910000
     1548.706800       0.909500
     1548.826800       0.909000
     1548.946700       0.908600
     1549.066700       0.908200
     1549.186700       0.907800
     1549.306700       0.907500
     1549.426700       0.907300
     1549.546800       0.907000
     1549.666800       0.906800
     1549.786900       0.906700
     1549.907000       0.906500
     1550.027100       0.906400
     1550.147300       0.906300
     1550.267400       0.906200
     1550.387600       0.906200
     1550.507800       0.906100
     1550.628000       0.906100
     1550.748200       0.906000
     1550.868500       0.906000
     1550.988800       0.906000
     1551.109000       0.906100
     1551.229300       0.906100
     1551.349700       0.906200
     1551.470000       0.906300
     1551.590400       0.906500
     1551.710800       0.906600
     1551.831200       0.906900
     1551.951600       0.907200
     1552.072000       0.907500
     1552.192500       0.907900
     1552.312900       0.908300
     1552.433400       0.908800
     1552.554000       0.909400
     1552.674500       0.910000
     1552.795000       0.910700
     1552.915600       0.911500
     1553.036200       0.912300
     1553.156800       0.913300
     1553.277400       0.914300
     1553.398100       0.915400
     1553.518700       0.916600
     1553.639400       0.917900
     1553.760100       0.919400
     1553.880800       0.920900
     1554.001600       0.922500
     1554.122300       0.924300
     1554.243100       0.926100
     1554.363900       0.928100
     1554.484700       0.930300
     1554.605500       0.932500
     1554.726400       0.934800
     1554.847200       0.937300
     1554.968100       0.939800
     1555.089000       0.942400
     1555.210000       0.945000
     1555.330900       0.947700
     1555.451900       0.950300
     1555.572800       0.953100
     1555.693800       0.955800
     1555.814900       0.958500
     1555.935900       0.961300
     1556.057000       0.964000
     1556.178000       0.966600
     1556.299100       0.969300
     1556.420200       0.971900
     1556.541400       0.974400
     1556.662500       0.976800
     1556.783700       0.979100
     1556.904900       0.981300
     1557.026100       0.983500
     1557.147300       0.985400
     1557.268600       0.987200
     1557.389800       0.988900
     1557.511100       0.990400
     1557.632400       0.991700
     1557.753700       0.992800
     1557.875100       0.993700
     1557.996400       0.994300
     1558.117800       0.994700
     1558.239200       0.994900
     1558.360600       0.994800
     1558.482000       0.994400
     1558.603500       0.993900
     1558.725000       0.993100
     1558.846500       0.992000
     1558.968000       0.990800
     1559.089500       0.989400
     1559.211000       0.987800
     1559.332600       0.986000
     1559.454200       0.984100
     1559.575800       0.982000
     1559.697400       0.979800
     1559.819100       0.977500
     1559.940700       0.975000
     1560.062400       0.972400
     1560.184100       0.969700
     1560.305800       0.966900
     1560.427600       0.964000
     1560.549300       0.961000
     1560.671100       0.958000
     1560.792900       0.954900
     1560.914700       0.951900
     1561.036500       0.948800
     1561.158400       0.945700
     1561.280200       0.942600
     1561.402100       0.939500
     1561.524000       0.936500
     1561.646000       0.933500
     1561.767900       0.930600
     1561.889900       0.927700
     1562.011900       0.925000
     1562.133900       0.922300
     1562.255900       0.919700
     1562.377900       0.917300
     1562.500000       0.914900
     1562.622100       0.912600
     1562.744200       0.910400
     1562.866300       0.908300
     1562.988400       0.906300
     1563.110600       0.904400
     1563.232800       0.902500
     1563.355000       0.900800
     1563.477200       0.899100
     1563.599400       0.897500
     1563.721700       0.896000
     1563.843900       0.894600
     1563.966200       0.893200
     1564.088500       0.892000
     1564.210900       0.890800
     1564.333200       0.889700
     1564.455600       0.888600
     1564.578000       0.887600
     1564.700400       0.886700
     1564.822800       0.885900
     1564.945200       0.885100
     1565.067700       0.884300
     1565.190200       0.883600
     1565.312700       0.883000
     1565.435200       0.882400
     1565.557700       0.881900
     1565.680300       0.881400
     1565.802900       0.880900
     1565.925500       0.880500
     1566.048100       0.880200
     1566.170700       0.879800
     1566.293400       0.879600
     1566.416000       0.879300
     1566.538700       0.879100
     1566.661400       0.878900
     1566.784200       0.878700
     1566.906900       0.878600
     1567.029700       0.878500
     1567.152500       0.878400
     1567.275300       0.878400
     1567.398100       0.878300
     1567.521000       0.878300
     1567.643800       0.878300
     1567.766700       0.878300
     1567.889600       0.878300
     1568.012500       0.878400
     1568.135500       0.878400
     1568.258400       0.878500
     1568.381400       0.878500
     1568.504400       0.878600
     1568.627500       0.878600
     1568.750500       0.878700
     1568.873500       0.878800
     1568.996600       0.878800
     1569.119700       0.878900
     1569.242800       0.879000
     1569.366000       0.879000
     1569.489100       0.879100
     1569.612300       0.879100
     1569.735500       0.879100
     1569.858700       0.879100
     1569.981900       0.879100
     1570.105200       0.879100
     1570.228500       0.879100
     1570.351800       0.879000
     1570.475100       0.879000
     1570.598400       0.878900
     1570.721700       0.878800
     1570.845100       0.878700
     1570.968500       0.878600
     1571.091900       0.878500
     1571.215300       0.878300
     1571.338800       0.878200
     1571.462200       0.878100
     1571.585700       0.877900
     1571.709200       0.877700
     1571.832800       0.877600
     1571.956300       0.877400
     1572.079900       0.877200
     1572.203400       0.877000
     1572.327000       0.876800
     1572.450700       0.876600
     1572.574300       0.876400
     1572.698000       0.876200
     1572.821600       0.876000
     1572.945300       0.875700
     1573.069100       0.875500
     1573.192800       0.875300
     1573.316600       0.875100
     1573.440300       0.874900
     1573.564100       0.874600
     1573.687900       0.874400
     1573.811800       0.874200
     1573.935600       0.874000
     1574.059500       0.873800
     1574.183400       0.873600
     1574.307300       0.873400
     1574.431200       0.873200
     1574.555200       0.873000
     1574.679200       0.872800
     1574.803100       0.872600
     1574.927200       0.872400
     1575.051200       0.872100
     1575.175200       0.871900
     1575.299300       0.871600
     1575.423400       0.871300
     1575.547500       0.871100
     1575.671600       0.870800
     1575.795800       0.870400
     1575.919900       0.870100
     1576.044100       0.869800
     1576.168300       0.869400
     1576.292600       0.869000
     1576.416800       0.868600
     1576.541100       0.868200
     1576.665400       0.867700
     1576.789700       0.867200
     1576.914000       0.866700
     1577.038300       0.866200
     1577.162700       0.865600
     1577.287100       0.865000
     1577.411500       0.864300
     1577.535900       0.863700
     1577.660300       0.862900
     1577.784800       0.862200
     1577.909300       0.861400
     1578.033800       0.860500
     1578.158300       0.859700
     1578.282800       0.858800
     1578.407400       0.857900
     1578.532000       0.857000
     1578.656600       0.856000
     1578.781200       0.855000
     1578.905800       0.854100
     1579.030500       0.853100
     1579.155200       0.852100
     1579.279800       0.851100
     1579.404600       0.850100
     1579.529300       0.849100
     1579.654100       0.848100
     1579.778800       0.847100
     1579.903600       0.846100
     1580.028400       0.845100
     1580.153300       0.844200
     1580.278100       0.843200
     1580.403000       0.842300
     1580.527900       0.841400
     1580.652800       0.840500
     1580.777700       0.839600
     1580.902700       0.838800
     1581.027700       0.838000
     1581.152700       0.837200
     1581.277700       0.836500
     1581.402700       0.835800
     1581.527800       0.835100
     1581.652800       0.834500
     1581.777900       0.834000
     1581.903000       0.833400
     1582.028200       0.832900
     1582.153300       0.832500
     1582.278500       0.832100
     1582.403700       0.831700
     1582.528900       0.831300
     1582.654100       0.831000
     1582.779400       0.830700
     1582.904600       0.830400
     1583.029900       0.830200
     1583.155200       0.829900
     1583.280600       0.829700
     1583.405900       0.829500
     1583.531300       0.829400
     1583.656700       0.829200
     1583.782100       0.829100
     1583.907500       0.829000
     1584.032900       0.828900
     1584.158400       0.828800
     1584.283900       0.828700
     1584.409400       0.828700
     1584.534900       0.828600
     1584.660500       0.828500
     1584.786100       0.828500
     1584.911600       0.828500
     1585.037200       0.828400
     1585.162900       0.828400
     1585.288500       0.828300
     1585.414200       0.828300
     1585.539900       0.828200
     1585.665600       0.828200
     1585.791300       0.828200
     1585.917100       0.828100
     1586.042800       0.828100
     1586.168600       0.828000
     1586.294400       0.828000
     1586.420200       0.827900
     1586.546100       0.827900
     1586.672000       0.827800
     1586.797800       0.827800
     1586.923700       0.827700
     1587.049700       0.827700
     1587.175600       0.827600
     1587.301600       0.827600
     1587.427600       0.827500
     1587.553600       0.827500
     1587.679600       0.827400
     1587.805700       0.827400
     1587.931700       0.827400
     1588.057800       0.827300
     1588.183900       0.827300
     1588.310000       0.827200
     1588.436200       0.827200
     1588.562400       0.827200
     1588.688500       0.827100
     1588.814700       0.827100
     1588.941000       0.827100
     1589.067200       0.827100
     1589.193500       0.827000
     1589.319800       0.827000
     1589.446100       0.827000
     1589.572400       0.827000
     1589.698800       0.827000
     1589.825100       0.827000
     1589.951500       0.827000
     1590.077900       0.827000
     1590.204300       0.826900
     1590.330800       0.826900
     1590.457300       0.826900
     1590.583700       0.826900
     1590.710300       0.826900
     1590.836800       0.826800
     1590.963300       0.826800
     1591.089900       0.826800
     1591.216500       0.826800
     1591.343100       0.826700
     1591.469700       0.826700
     1591.596400       0.826600
     1591.723000       0.826500
     1591.849700       0.826500
     1591.976400       0.826400
     1592.103200       0.826300
     1592.229900       0.826200
     1592.356700       0.826100
     1592.483500       0.826000
     1592.610300       0.825800
     1592.737100       0.825700
     1592.864000       0.825500
     1592.990800       0.825400
     1593.117700       0.825200
     1593.244600       0.825000
     1593.371600       0.824800
     1593.498500       0.824600
     1593.625500       0.824300
     1593.752500       0.824100
     1593.879500       0.823800
     1594.006500       0.823600
     1594.133600       0.823300
     1594.260700       0.823000
     1594.387800       0.822700
     1594.514900       0.822400
     1594.642000       0.822000
     1594.769200       0.821700
     1594.896300       0.821300
     1595.023500       0.820900
     1595.150700       0.820500
     1595.278000       0.820100
     1595.405200       0.819700
     1595.532500       0.819300
     1595.659800       0.818900
     1595.787100       0.818400
     1595.914500       0.818000
     1596.041800       0.817500
     1596.169200       0.817100
     1596.296600       0.816600
     1596.424000       0.816100
     1596.551400       0.815600
     1596.678900       0.815100
     1596.806400       0.814500
     1596.933900       0.814000
     1597.061400       0.813500
     1597.188900       0.812900
     1597.316500       0.812400
     1597.444100       0.811800
     1597.571700       0.811200
     1597.699300       0.810600
     1597.827000       0.810000
     1597.954600       0.809500
     1598.082300       0.808900
     1598.210000       0.808300
     1598.337700       0.807600
     1598.465500       0.807000
     1598.593200       0.806400
     1598.721000       0.805800
     1598.848800       0.805200
     1598.976700       0.804500
     1599.104500       0.803900
     1599.232400       0.803300
     1599.360300       0.802700
     1599.488200       0.802000
     1599.616100       0.801400
     1599.744000       0.800700
     1599.872000       0.800100
     1600.000000       0.799500
     1600.128000       0.798800
     1600.256000       0.798200
     1600.384100       0.797600
     1600.512200       0.796900
     1600.640300       0.796300
     1600.768400       0.795700
     1600.896500       0.795100
     1601.024700       0.794400
     1601.152800       0.793800
     1601.281000       0.793200
     1601.409200       0.792600
     1601.537500       0.792000
     1601.665700       0.791400
     1601.794000       0.790800
     1601.922300       0.790300
     1602.050600       0.789700
     1602.179000       0.789100
     1602.307300       0.788600
     1602.435700       0.788000
     1602.564100       0.787500
     1602.692500       0.787000
     1602.821000       0.786500
     1602.949400       0.786000
     1603.077900       0.785500
     1603.206400       0.785000
     1603.334900       0.784600
     1603.463500       0.784100
     1603.592000       0.783700
     1603.720600       0.783300
     1603.849200       0.782900
     1603.977900       0.782500
     1604.106500       0.782200
     1604.235200       0.781800
     1604.363900       0.781500
     1604.492600       0.781200
     1604.621300       0.780900
     1604.750100       0.780600
     1604.878800       0.780300
     1605.007600       0.780100
     1605.136400       0.779900
     1605.265300       0.779600
     1605.394100       0.779500
     1605.523000       0.779300
     1605.651900       0.779100
     1605.780800       0.779000
     1605.909700       0.778800
     1606.038700       0.778700
     1606.167700       0.778600
     1606.296700       0.778500
     1606.425700       0.778500
     1606.554700       0.778400
     1606.683800       0.778400
     1606.812900       0.778300
     1606.942000       0.778300
     1607.071100       0.778300
     1607.200300       0.778300
     1607.329400       0.778300
     1607.458600       0.778400
     1607.587800       0.778400
     1607.717000       0.778500
     1607.846300       0.778500
     1607.975600       0.778600
     1608.104800       0.778700
     1608.234200       0.778800
     1608.363500       0.778900
     1608.492800       0.779100
     1608.622200       0.779200
     1608.751600       0.779400
     1608.881000       0.779500
     1609.010500       0.779700
     1609.139900       0.779900
     1609.269400       0.780200
     1609.398900       0.780400
     1609.528400       0.780700
     1609.657900       0.781000
     1609.787500       0.781300
     1609.917100       0.781600
     1610.046700       0.782000
     1610.176300       0.782300
     1610.306000       0.782800
     1610.435600       0.783200
     1610.565300       0.783700
     1610.695000       0.784200
     1610.824700       0.784700
     1610.954500       0.785300
     1611.084300       0.785900
     1611.214000       0.786500
     1611.343900       0.787200
     1611.473700       0.787900
     1611.603500       0.788700
     1611.733400       0.789500
     1611.863300       0.790300
     1611.993200       0.791200
     1612.123200       0.792200
     1612.253100       0.793100
     1612.383100       0.794200
     1612.513100       0.795200
     1612.643100       0.796300
     1612.773200       0.797500
     1612.903200       0.798600
     1613.033300       0.799900
     1613.163400       0.801100
     1613.293500       0.802400
     1613.423700       0.803700
     1613.553900       0.805000
     1613.684000       0.806300
     1613.814200       0.807700
     1613.944500       0.809000
     1614.074700       0.810400
     1614.205000       0.811800
     1614.335300       0.813200
     1614.465600       0.814600
     1614.595900       0.816000
     1614.726300       0.817400
     1614.856700       0.818800
     1614.987100       0.820200
     1615.117500       0.821600
     1615.247900       0.822900
     1615.378400       0.824300
     1615.508900       0.825600
     1615.639400       0.826900
     1615.769900       0.828200
     1615.900500       0.829500
     1616.031000       0.830700
     1616.161600       0.831900
     1616.292200       0.833000
     1616.422900       0.834200
     1616.553500       0.835300
     1616.684200       0.836300
     1616.814900       0.837400
     1616.945600       0.838400
     1617.076300       0.839300
     1617.207100       0.840300
     1617.337900       0.841200
     1617.468700       0.842100
     1617.599500       0.843000
     1617.730300       0.843900
     1617.861200       0.844700
     1617.992100       0.845500
     1618.123000       0.846300
     1618.253900       0.847000
     1618.384900       0.847800
     1618.515800       0.848500
     1618.646800       0.849200
     1618.777800       0.849800
     1618.908900       0.850500
     1619.039900       0.851200
     1619.171000       0.851800
     1619.302100       0.852400
     1619.433200       0.853000
     1619.564300       0.853600
     1619.695500       0.854200
     1619.826700       0.854800
     1619.957900       0.855400
     1620.089100       0.855900
     1620.220300       0.856500
     1620.351600       0.857100
     1620.482900       0.857600
     1620.614200       0.858200
     1620.745500       0.858700
     1620.876900       0.859200
     1621.008300       0.859700
     1621.139700       0.860200
     1621.271100       0.860700
     1621.402500       0.861200
     1621.534000       0.861700
     1621.665500       0.862200
     1621.797000       0.862600
     1621.928500       0.863100
     1622.060000       0.863500
     1622.191600       0.863900
     1622.323200       0.864300
     1622.454800       0.864700
     1622.586400       0.865100
     1622.718100       0.865500
     1622.849700       0.865800
     1622.981400       0.866200
     1623.113100       0.866500
     1623.244900       0.866800
     1623.376600       0.867100
     1623.508400       0.867400
     1623.640200       0.867600
     1623.772000       0.867900
     1623.903900       0.868100
     1624.035700       0.868300
     1624.167600       0.868500
     1624.299500       0.868600
     1624.431400       0.868800
     1624.563400       0.868900
     1624.695400       0.869000
     1624.827400       0.869100
     1624.959400       0.869200
     1625.091400       0.869200
     1625.223500       0.869300
     1625.355500       0.869300
     1625.487600       0.869300
     1625.619800       0.869300
     1625.751900       0.869300
     1625.884100       0.869200
     1626.016300       0.869200
     1626.148500       0.869100
     1626.280700       0.869000
     1626.412900       0.868900
     1626.545200       0.868800
     1626.677500       0.868600
     1626.809800       0.868500
     1626.942200       0.868300
     1627.074500       0.868200
     1627.206900       0.868000
     1627.339300       0.867800
     1627.471700       0.867600
     1627.604200       0.867300
     1627.736600       0.867100
     1627.869100       0.866900
     1628.001600       0.866600
     1628.134200       0.866400
     1628.266700       0.866200
     1628.399300       0.866000
     1628.531900       0.865800
     1628.664500       0.865600
     1628.797100       0.865400
     1628.929800       0.865300
     1629.062500       0.865100
     1629.195200       0.865000
     1629.327900       0.865000
     1629.460600       0.865000
     1629.593400       0.865000
     1629.726200       0.865100
     1629.859000       0.865200
     1629.991900       0.865400
     1630.124700       0.865600
     1630.257600       0.865900
     1630.390500       0.866200
     1630.523400       0.866700
     1630.656300       0.867200
     1630.789300       0.867800
     1630.922300       0.868400
     1631.055300       0.869200
     1631.188300       0.870000
     1631.321400       0.870900
     1631.454400       0.871900
     1631.587500       0.873100
     1631.720600       0.874300
     1631.853800       0.875600
     1631.986900       0.877000
     1632.120100       0.878400
     1632.253300       0.879900
     1632.386500       0.881500
     1632.519800       0.883100
     1632.653100       0.884800
     1632.786300       0.886500
     1632.919700       0.888300
     1633.053000       0.890000
     1633.186300       0.891800
     1633.319700       0.893500
     1633.453100       0.895300
     1633.586500       0.897100
     1633.720000       0.898800
     1633.853400       0.900600
     1633.986900       0.902200
     1634.120400       0.903900
     1634.254000       0.905500
     1634.387500       0.907000
     1634.521100       0.908500
     1634.654700       0.909900
     1634.788300       0.911200
     1634.921900       0.912400
     1635.055600       0.913500
     1635.189300       0.914500
     1635.323000       0.915400
     1635.456700       0.916100
     1635.590400       0.916800
     1635.724200       0.917300
     1635.858000       0.917700
     1635.991800       0.918000
     1636.125700       0.918200
     1636.259500       0.918200
     1636.393400       0.918200
     1636.527300       0.918100
     1636.661200       0.917900
     1636.795200       0.917600
     1636.929100       0.917300
     1637.063100       0.916900
     1637.197100       0.916400
     1637.331200       0.915800
     1637.465200       0.915200
     1637.599300       0.914600
     1637.733400       0.913900
     1637.867500       0.913100
     1638.001600       0.912400
     1638.135800       0.911600
     1638.270000       0.910800
     1638.404200       0.909900
     1638.538400       0.909100
     1638.672700       0.908300
     1638.806900       0.907500
     1638.941200       0.906700
     1639.075600       0.905900
     1639.209900       0.905100
     1639.344300       0.904300
     1639.478600       0.903600
     1639.613100       0.903000
     1639.747500       0.902300
     1639.881900       0.901700
     1640.016400       0.901100
     1640.150900       0.900600
     1640.285400       0.900200
     1640.419900       0.899700
     1640.554500       0.899400
     1640.689100       0.899000
     1640.823700       0.898800
     1640.958300       0.898600
     1641.093000       0.898400
     1641.227600       0.898300
     1641.362300       0.898300
     1641.497000       0.898300
     1641.631800       0.898400
     1641.766500       0.898600
     1641.901300       0.898800
     1642.036100       0.899100
     1642.170900       0.899500
     1642.305800       0.900000
     1642.440700       0.900500
     1642.575600       0.901100
     1642.710500       0.901800
     1642.845400       0.902600
     1642.980400       0.903500
     1643.115300       0.904400
     1643.250300       0.905500
     1643.385400       0.906600
     1643.520400       0.907800
     1643.655500       0.909100
     1643.790600       0.910400
     1643.925700       0.911800
     1644.060800       0.913300
     1644.196000       0.914800
     1644.331200       0.916400
     1644.466400       0.918000
     1644.601600       0.919700
     1644.736800       0.921400
     1644.872100       0.923100
     1645.007400       0.924800
     1645.142700       0.926600
     1645.278100       0.928400
     1645.413400       0.930200
     1645.548800       0.932100
     1645.684200       0.933900
     1645.819600       0.935700
     1645.955100       0.937600
     1646.090500       0.939400
     1646.226000       0.941200
     1646.361500       0.942900
     1646.497100       0.944700
     1646.632600       0.946400
     1646.768200       0.948100
     1646.903800       0.949700
     1647.039400       0.951300
     1647.175100       0.952900
     1647.310800       0.954400
     1647.446500       0.955900
     1647.582200       0.957300
     1647.717900       0.958600
     1647.853700       0.960000
     1647.989500       0.961200
     1648.125300       0.962500
     1648.261100       0.963700
     1648.396900       0.964800
     1648.532800       0.965900
     1648.668700       0.966900
     1648.804600       0.967900
     1648.940600       0.968900
     1649.076500       0.969800
     1649.212500       0.970700
     1649.348500       0.971500
     1649.484500       0.972300
     1649.620600       0.973000
     1649.756700       0.973700
     1649.892800       0.974300
     1650.028900       0.974900
     1650.165000       0.975400
     1650.301200       0.975900
     1650.437400       0.976400
     1650.573600       0.976800
     1650.709800       0.977200
     1650.846100       0.977500
     1650.982300       0.977800
     1651.118600       0.978100
     1651.255000       0.978300
     1651.391300       0.978500
     1651.527700       0.978700
     1651.664100       0.978800
     1651.800500       0.978800
     1651.936900       0.978800
     1652.073400       0.978800
     1652.209800       0.978700
     1652.346300       0.978500
     1652.482900       0.978300
     1652.619400       0.978000
     1652.756000       0.977700
     1652.892600       0.977300
     1653.029200       0.976800
     1653.165800       0.976300
     1653.302500       0.975700
     1653.439200       0.975100
     1653.575900       0.974400
     1653.712600       0.973600
     1653.849300       0.972800
     1653.986100       0.971900
     1654.122900       0.970900
     1654.259700       0.969900
     1654.396600       0.968700
     1654.533400       0.967500
     1654.670300       0.966200
     1654.807200       0.964700
     1654.944100       0.963200
     1655.081100       0.961700
     1655.218100       0.960000
     1655.355100       0.958300
     1655.492100       0.956600
     1655.629100       0.954700
     1655.766200       0.952900
     1655.903300       0.951000
     1656.040400       0.949100
     1656.177500       0.947200
     1656.314700       0.945200
     1656.451900       0.943300
     1656.589100       0.941400
     1656.726300       0.939400
     1656.863600       0.937500
     1657.000800       0.935600
     1657.138100       0.933800
     1657.275400       0.931900
     1657.412800       0.930200
     1657.550100       0.928400
     1657.687500       0.926700
     1657.824900       0.925100
     1657.962400       0.923500
     1658.099800       0.922000
     1658.237300       0.920600
     1658.374800       0.919300
     1658.512300       0.918100
     1658.649900       0.917000
     1658.787400       0.916000
     1658.925000       0.915100
     1659.062600       0.914300
     1659.200300       0.913600
     1659.337900       0.913000
     1659.475600       0.912400
     1659.613300       0.911900
     1659.751000       0.911500
     1659.888800       0.911200
     1660.026600       0.910900
     1660.164400       0.910700
     1660.302200       0.910600
     1660.440000       0.910500
     1660.577900       0.910400
     1660.715800       0.910400
     1660.853700       0.910400
     1660.991600       0.910500
     1661.129600       0.910600
     1661.267500       0.910700
     1661.405500       0.910900
     1661.543600       0.911100
     1661.681600       0.911200
     1661.819700       0.911400
     1661.957800       0.911600
     1662.095900       0.911800
     1662.234000       0.912000
     1662.372200       0.912200
     1662.510400       0.912300
     1662.648600       0.912400
     1662.786800       0.912600
     1662.925100       0.912700
     1663.063400       0.912800
     1663.201700       0.912900
     1663.340000       0.913000
     1663.478300       0.913200
     1663.616700       0.913300
     1663.755100       0.913400
     1663.893500       0.913600
     1664.031900       0.913700
     1664.170400       0.913900
     1664.308900       0.914100
     1664.447400       0.914300
     1664.585900       0.914500
     1664.724500       0.914800
     1664.863100       0.915100
     1665.001700       0.915400
     1665.140300       0.915800
     1665.278900       0.916200
     1665.417600       0.916600
     1665.556300       0.917100
     1665.695000       0.917700
     1665.833700       0.918300
     1665.972500       0.918900
     1666.111300       0.919600
     1666.250100       0.920400
     1666.388900       0.921300
     1666.527800       0.922200
     1666.666700       0.923100
     1666.805600       0.924100
     1666.944500       0.925200
     1667.083400       0.926300
     1667.222400       0.927400
     1667.361400       0.928600
     1667.500400       0.929800
     1667.639500       0.931000
     1667.778500       0.932200
     1667.917600       0.933500
     1668.056700       0.934700
     1668.195800       0.936000
     1668.335000       0.937300
     1668.474200       0.938500
     1668.613400       0.939800
     1668.752600       0.941000
     1668.891900       0.942200
     1669.031100       0.943400
     1669.170400       0.944500
     1669.309700       0.945600
     1669.449100       0.946600
     1669.588400       0.947600
     1669.727800       0.948600
     1669.867200       0.949500
     1670.006700       0.950300
     1670.146100       0.951000
     1670.285600       0.951600
     1670.425100       0.952200
     1670.564700       0.952700
     1670.704200       0.953200
     1670.843800       0.953500
     1670.983400       0.953800
     1671.123000       0.954000
     1671.262600       0.954200
     1671.402300       0.954300
     1671.542000       0.954300
     1671.681700       0.954300
     1671.821400       0.954200
     1671.961200       0.954000
     1672.101000       0.953800
     1672.240800       0.953600
     1672.380600       0.953300
     1672.520500       0.952900
     1672.660400       0.952500
     1672.800300       0.952000
     1672.940200       0.951500
     1673.080100       0.950900
     1673.220100       0.950300
     1673.360100       0.949700
     1673.500100       0.949000
     1673.640200       0.948300
     1673.780200       0.947500
     1673.920300       0.946800
     1674.060400       0.946000
     1674.200600       0.945100
     1674.340700       0.944300
     1674.480900       0.943400
     1674.621100       0.942500
     1674.761300       0.941600
     1674.901600       0.940800
     1675.041900       0.939900
     1675.182200       0.939000
     1675.322500       0.938100
     1675.462800       0.937300
     1675.603200       0.936400
     1675.743600       0.935600
     1675.884000       0.934800
     1676.024500       0.934100
     1676.164900       0.933400
     1676.305400       0.932700
     1676.445900       0.932100
     1676.586500       0.931500
     1676.727000       0.931000
     1676.867600       0.930500
     1677.008200       0.930100
     1677.148800       0.929800
     1677.289500       0.929500
     1677.430200       0.929300
     1677.570900       0.929200
     1677.711600       0.929200
     1677.852300       0.929300
     1677.993100       0.929400
     1678.133900       0.929700
     1678.274700       0.930000
     1678.415600       0.930400
     1678.556400       0.930900
     1678.697300       0.931500
     1678.838200       0.932100
     1678.979200       0.932800
     1679.120100       0.933600
     1679.261100       0.934400
     1679.402100       0.935300
     1679.543200       0.936300
     1679.684200       0.937300
     1679.825300       0.938400
     1679.966400       0.939500
     1680.107500       0.940700
     1680.248700       0.941900
     1680.389900       0.943100
     1680.531000       0.944400
     1680.672300       0.945700
     1680.813500       0.947100
     1680.954800       0.948400
     1681.096100       0.949800
     1681.237400       0.951300
     1681.378700       0.952700
     1681.520100       0.954200
     1681.661500       0.955600
     1681.802900       0.957100
     1681.944300       0.958600
     1682.085800       0.960100
     1682.227300       0.961600
     1682.368800       0.963100
     1682.510300       0.964600
     1682.651900       0.966000
     1682.793400       0.967400
     1682.935000       0.968700
     1683.076700       0.970000
     1683.218300       0.971200
     1683.360000       0.972300
     1683.501700       0.973400
     1683.643400       0.974400
     1683.785100       0.975300
     1683.926900       0.976100
     1684.068700       0.976800
     1684.210500       0.977300
     1684.352400       0.977800
     1684.494200       0.978100
     1684.636100       0.978300
     1684.778000       0.978400
     1684.920000       0.978300
     1685.061900       0.978000
     1685.203900       0.977600
     1685.345900       0.977000
     1685.487900       0.976200
     1685.630000       0.975200
     1685.772100       0.974000
     1685.914200       0.972700
     1686.056300       0.971200
     1686.198500       0.969500
     1686.340600       0.967700
     1686.482800       0.965800
     1686.625100       0.963800
     1686.767300       0.961700
     1686.909600       0.959500
     1687.051900       0.957200
     1687.194200       0.954900
     1687.336500       0.952500
     1687.478900       0.950000
     1687.621300       0.947600
     1687.763700       0.945100
     1687.906200       0.942600
     1688.048600       0.940200
     1688.191100       0.937700
     1688.333600       0.935300
     1688.476200       0.932900
     1688.618700       0.930600
     1688.761300       0.928400
     1688.903900       0.926200
     1689.046500       0.924100
     1689.189200       0.922200
     1689.331900       0.920300
     1689.474600       0.918600
     1689.617300       0.917000
     1689.760100       0.915600
     1689.902800       0.914300
     1690.045600       0.913100
     1690.188500       0.912000
     1690.331300       0.911100
     1690.474200       0.910300
     1690.617100       0.909600
     1690.760000       0.909100
     1690.902900       0.908700
     1691.045900       0.908400
     1691.188900       0.908200
     1691.331900       0.908100
     1691.475000       0.908200
     1691.618000       0.908400
     1691.761100       0.908700
     1691.904200       0.909100
     1692.047400       0.909700
     1692.190500       0.910300
     1692.333700       0.911100
     1692.476900       0.912000
     1692.620200       0.913000
     1692.763400       0.914100
     1692.906700       0.915400
     1693.050000       0.916700
     1693.193400       0.918200
     1693.336700       0.919800
     1693.480100       0.921500
     1693.623500       0.923200
     1693.766900       0.925100
     1693.910400       0.927000
     1694.053900       0.929000
     1694.197400       0.931100
     1694.340900       0.933200
     1694.484500       0.935400
     1694.628000       0.937500
     1694.771600       0.939700
     1694.915300       0.941900
     1695.058900       0.944100
     1695.202600       0.946300
     1695.346300       0.948500
     1695.490000       0.950700
     1695.633700       0.952800
     1695.777500       0.954900
     1695.921300       0.956900
     1696.065100       0.958800
     1696.209000       0.960700
     1696.352800       0.962500
     1696.496700       0.964200
     1696.640700       0.965900
     1696.784600       0.967400
     1696.928600       0.968800
     1697.072500       0.970000
     1697.216600       0.971200
     1697.360600       0.972200
     1697.504700       0.973100
     1697.648800       0.973800
     1697.792900       0.974400
     1697.937000       0.974900
     1698.081200       0.975300
     1698.225400       0.975500
     1698.369600       0.975700
     1698.513800       0.975700
     1698.658100       0.975600
     1698.802300       0.975400
     1698.946700       0.975100
     1699.091000       0.974600
     1699.235300       0.974100
     1699.379700       0.973500
     1699.524100       0.972700
     1699.668600       0.971900
     1699.813000       0.971000
     1699.957500       0.970000
     1700.102000       0.968900
     1700.246500       0.967700
     1700.391100       0.966400
     1700.535700       0.965000
     1700.680300       0.963500
     1700.824900       0.962000
     1700.969600       0.960300
     1701.114200       0.958600
     1701.258900       0.956800
     1701.403700       0.954900
     1701.548400       0.952900
     1701.693200       0.950900
     1701.838000       0.948800
     1701.982800       0.946700
     1702.127700       0.944500
     1702.272500       0.942300
     1702.417400       0.940100
     1702.562400       0.937900
     1702.707300       0.935600
     1702.852300       0.933300
     1702.997300       0.931000
     1703.142300       0.928800
     1703.287300       0.926500
     1703.432400       0.924200
     1703.577500       0.922000
     1703.722600       0.919800
     1703.867800       0.917600
     1704.013000       0.915400
     1704.158100       0.913300
     1704.303400       0.911200
     1704.448600       0.909200
     1704.593900       0.907200
     1704.739200       0.905400
     1704.884500       0.903600
     1705.029800       0.901800
     1705.175200       0.900200
     1705.320600       0.898600
     1705.466000       0.897100
     1705.611500       0.895600
     1705.756900       0.894200
     1705.902400       0.892900
     1706.047900       0.891700
     1706.193500       0.890400
     1706.339000       0.889300
     1706.484600       0.888200
     1706.630300       0.887100
     1706.775900       0.886100
     1706.921600       0.885100
     1707.067300       0.884200
     1707.213000       0.883300
     1707.358700       0.882500
     1707.504500       0.881700
     1707.650300       0.880900
     1707.796100       0.880200
     1707.941900       0.879500
     1708.087800       0.878800
     1708.233700       0.878100
     1708.379600       0.877500
     1708.525500       0.876900
     1708.671500       0.876300
     1708.817500       0.875700
     1708.963500       0.875200
     1709.109600       0.874600
     1709.255600       0.874100
     1709.401700       0.873600
     1709.547800       0.873100
     1709.694000       0.872700
     1709.840100       0.872200
     1709.986300       0.871800
     1710.132500       0.871500
     1710.278800       0.871100
     1710.425000       0.870800
     1710.571300       0.870600
     1710.717600       0.870300
     1710.864000       0.870100
     1711.010400       0.870000
     1711.156700       0.869800
     1711.303200       0.869700
     1711.449600       0.869700
     1711.596100       0.869700
     1711.742600       0.869700
     1711.889100       0.869800
     1712.035600       0.869900
     1712.182200       0.870100
     1712.328800       0.870300
     1712.475400       0.870600
     1712.622000       0.870900
     1712.768700       0.871300
     1712.915400       0.871700
     1713.062100       0.872100
     1713.208800       0.872500
     1713.355600       0.873000
     1713.502400       0.873400
     1713.649200       0.873800
     1713.796100       0.874200
     1713.942900       0.874600
     1714.089800       0.874900
     1714.236700       0.875200
     1714.383700       0.875500
     1714.530600       0.875600
     1714.677600       0.875700
     1714.824700       0.875700
     1714.971700       0.875600
     1715.118800       0.875400
     1715.265900       0.875000
     1715.413000       0.874600
     1715.560100       0.874000
     1715.707300       0.873200
     1715.854500       0.872300
     1716.001700       0.871200
     1716.149000       0.869900
     1716.296200       0.868400
     1716.443500       0.866800
     1716.590900       0.864900
     1716.738200       0.862800
     1716.885600       0.860600
     1717.033000       0.858200
     1717.180400       0.855700
     1717.327800       0.853000
     1717.475300       0.850200
     1717.622800       0.847300
     1717.770300       0.844200
     1717.917900       0.841100
     1718.065500       0.837800
     1718.213100       0.834500
     1718.360700       0.831200
     1718.508300       0.827700
     1718.656000       0.824200
     1718.803700       0.820700
     1718.951400       0.817200
     1719.099200       0.813700
     1719.247000       0.810200
     1719.394800       0.806700
     1719.542600       0.803200
     1719.690500       0.799800
     1719.838300       0.796500
     1719.986200       0.793200
     1720.134200       0.790000
     1720.282100       0.786900
     1720.430100       0.783900
     1720.578100       0.781000
     1720.726100       0.778200
     1720.874200       0.775400
     1721.022300       0.772800
     1721.170400       0.770200
     1721.318500       0.767700
     1721.466700       0.765200
     1721.614900       0.762800
     1721.763100       0.760500
     1721.911300       0.758200
     1722.059600       0.756000
     1722.207900       0.753900
     1722.356200       0.751800
     1722.504500       0.749700
     1722.652900       0.747600
     1722.801300       0.745600
     1722.949700       0.743600
     1723.098100       0.741600
     1723.246600       0.739700
     1723.395100       0.737700
     1723.543600       0.735800
     1723.692100       0.733800
     1723.840700       0.731900
     1723.989300       0.729900
     1724.137900       0.728000
     1724.286600       0.726000
     1724.435200       0.724000
     1724.583900       0.722000
     1724.732700       0.720000
     1724.881400       0.717900
     1725.030200       0.715900
     1725.179000       0.713800
     1725.327800       0.711700
     1725.476700       0.709600
     1725.625500       0.707400
     1725.774400       0.705300
     1725.923400       0.703100
     1726.072300       0.700900
     1726.221300       0.698600
     1726.370300       0.696400
     1726.519300       0.694100
     1726.668400       0.691800
     1726.817500       0.689500
     1726.966600       0.687100
     1727.115700       0.684800
     1727.264900       0.682400
     1727.414100       0.679900
     1727.563300       0.677500
     1727.712500       0.675000
     1727.861800       0.672500
     1728.011100       0.670000
     1728.160400       0.667400
     1728.309700       0.664900
     1728.459100       0.662200
     1728.608500       0.659600
     1728.757900       0.656900
     1728.907300       0.654200
     1729.056800       0.651400
     1729.206300       0.648600
     1729.355800       0.645800
     1729.505400       0.642900
     1729.654900       0.640000
     1729.804500       0.637100
     1729.954200       0.634100
     1730.103800       0.631000
     1730.253500       0.627900
     1730.403200       0.624800
     1730.552900       0.621600
     1730.702700       0.618300
     1730.852400       0.615000
     1731.002300       0.611700
     1731.152100       0.608300
     1731.301900       0.604800
     1731.451800       0.601300
     1731.601700       0.597700
     1731.751700       0.594000
     1731.901600       0.590300
     1732.051600       0.586600
     1732.201600       0.582800
     1732.351700       0.578900
     1732.501700       0.575000
     1732.651800       0.571000
     1732.801900       0.567000
     1732.952100       0.563000
     1733.102300       0.559000
     1733.252400       0.554900
     1733.402700       0.550800
     1733.552900       0.546700
     1733.703200       0.542600
     1733.853500       0.538500
     1734.003800       0.534400
     1734.154200       0.530300
     1734.304500       0.526200
     1734.454900       0.522100
     1734.605400       0.518000
     1734.755800       0.514000
     1734.906300       0.509900
     1735.056800       0.506000
     1735.207400       0.502000
     1735.357900       0.498100
     1735.508500       0.494200
     1735.659100       0.490400
     1735.809800       0.486600
     1735.960400       0.482900
     1736.111100       0.479200
     1736.261800       0.475600
     1736.412600       0.472000
     1736.563300       0.468400
     1736.714100       0.464900
     1736.865000       0.461400
     1737.015800       0.457900
     1737.166700       0.454400
     1737.317600       0.451000
     1737.468500       0.447500
     1737.619500       0.444100
     1737.770400       0.440700
     1737.921400       0.437300
     1738.072500       0.433900
     1738.223500       0.430500
     1738.374600       0.427100
     1738.525700       0.423600
     1738.676900       0.420200
     1738.828000       0.416700
     1738.979200       0.413200
     1739.130400       0.409700
     1739.281700       0.406200
     1739.432900       0.402700
     1739.584200       0.399100
     1739.735600       0.395400
     1739.886900       0.391800
     1740.038300       0.388100
     1740.189700       0.384400
     1740.341100       0.380700
     1740.492600       0.376900
     1740.644000       0.373200
     1740.795500       0.369400
     1740.947100       0.365600
     1741.098600       0.361900
     1741.250200       0.358100
     1741.401800       0.354300
     1741.553500       0.350500
     1741.705100       0.346800
     1741.856800       0.343000
     1742.008500       0.339300
     1742.160300       0.335600
     1742.312000       0.331900
     1742.463800       0.328200
     1742.615700       0.324600
     1742.767500       0.321000
     1742.919400       0.317400
     1743.071300       0.313900
     1743.223200       0.310400
     1743.375200       0.306900
     1743.527200       0.303500
     1743.679200       0.300200
     1743.831200       0.296900
     1743.983300       0.293600
     1744.135300       0.290400
     1744.287500       0.287300
     1744.439600       0.284200
     1744.591800       0.281100
     1744.744000       0.278100
     1744.896200       0.275100
     1745.048400       0.272100
     1745.200700       0.269200
     1745.353000       0.266400
     1745.505300       0.263600
     1745.657700       0.260800
     1745.810100       0.258100
     1745.962500       0.255400
     1746.114900       0.252700
     1746.267400       0.250100
     1746.419800       0.247500
     1746.572400       0.245000
     1746.724900       0.242500
     1746.877500       0.240000
     1747.030000       0.237600
     1747.182700       0.235200
     1747.335300       0.232800
     1747.488000       0.230400
     1747.640700       0.228100
     1747.793400       0.225900
     1747.946200       0.223600
     1748.098900       0.221400
     1748.251700       0.219200
     1748.404600       0.217000
     1748.557400       0.214800
     1748.710300       0.212700
     1748.863200       0.210600
     1749.016200       0.208400
     1749.169100       0.206400
     1749.322100       0.204300
     1749.475200       0.202200
     1749.628200       0.200100
     1749.781300       0.198100
     1749.934400       0.196000
     1750.087500       0.194000
     1750.240700       0.192000
     1750.393800       0.189900
     1750.547000       0.187900
     1750.700300       0.185900
     1750.853500       0.183800
     1751.006800       0.181800
     1751.160100       0.179700
     1751.313500       0.177700
     1751.466900       0.175600
     1751.620200       0.173600
     1751.773700       0.171500
     1751.927100       0.169400
     1752.080600       0.167400
     1752.234100       0.165300
     1752.387600       0.163300
     1752.541200       0.161200
     1752.694800       0.159200
     1752.848400       0.157200
     1753.002000       0.155100
     1753.155700       0.153100
     1753.309400       0.151100
     1753.463100       0.149200
     1753.616800       0.147200
     1753.770600       0.145300
     1753.924400       0.143300
     1754.078200       0.141500
     1754.232100       0.139600
     1754.386000       0.137700
     1754.539900       0.135900
     1754.693800       0.134100
     1754.847800       0.132300
     1755.001800       0.130600
     1755.155800       0.128900
     1755.309800       0.127200
     1755.463900       0.125600
     1755.618000       0.124000
     1755.772100       0.122400
     1755.926300       0.120900
     1756.080400       0.119300
     1756.234600       0.117800
     1756.388900       0.116300
     1756.543100       0.114900
     1756.697400       0.113500
     1756.851700       0.112100
     1757.006100       0.110700
     1757.160400       0.109300
     1757.314800       0.108000
     1757.469200       0.106700
     1757.623700       0.105400
     1757.778200       0.104100
     1757.932700       0.102800
     1758.087200       0.101600
     1758.241800       0.100300
     1758.396300       0.099100
     1758.551000       0.097900
     1758.705600       0.096700
     1758.860300       0.095500
     1759.015000       0.094400
     1759.169700       0.093200
     1759.324400       0.092100
     1759.479200       0.091000
     1759.634000       0.089900
     1759.788800       0.088800
     1759.943700       0.087700
     1760.098600       0.086600
     1760.253500       0.085600
     1760.408400       0.084600
     1760.563400       0.083500
     1760.718400       0.082500
     1760.873400       0.081600
     1761.028400       0.080600
     1761.183500       0.079700
     1761.338600       0.078800
     1761.493700       0.077900
     1761.648900       0.077000
     1761.804100       0.076200
     1761.959300       0.075300
     1762.114500       0.074500
     1762.269800       0.073700
     1762.425100       0.073000
     1762.580400       0.072200
     1762.735800       0.071500
     1762.891100       0.070900
     1763.046500       0.070200
     1763.202000       0.069500
     1763.357400       0.068900
     1763.512900       0.068300
     1763.668400       0.067700
     1763.824000       0.067200
     1763.979500       0.066600
     1764.135100       0.066100
     1764.290800       0.065600
     1764.446400       0.065000
     1764.602100       0.064500
     1764.757800       0.064000
     1764.913500       0.063600
     1765.069300       0.063100
     1765.225100       0.062600
     1765.380900       0.062100
     1765.536700       0.061600
     1765.692600       0.061200
     1765.848500       0.060700
     1766.004400       0.060200
     1766.160400       0.059700
     1766.316300       0.059200
     1766.472400       0.058700
     1766.628400       0.058200
     1766.784500       0.057700
     1766.940500       0.057200
     1767.096700       0.056700
     1767.252800       0.056100
     1767.409000       0.055600
     1767.565200       0.055000
     1767.721400       0.054500
     1767.877700       0.053900
     1768.033900       0.053400
     1768.190300       0.052800
     1768.346600       0.052300
     1768.503000       0.051700
     1768.659400       0.051100
     1768.815800       0.050600
     1768.972200       0.050000
     1769.128700       0.049400
     1769.285200       0.048900
     1769.441700       0.048300
     1769.598300       0.047700
     1769.754900       0.047100
     1769.911500       0.046600
     1770.068100       0.046000
     1770.224800       0.045500
     1770.381500       0.044900
     1770.538200       0.044300
     1770.695000       0.043800
     1770.851800       0.043300
     1771.008600       0.042700
     1771.165400       0.042200
     1771.322300       0.041700
     1771.479200       0.041100
     1771.636100       0.040600
     1771.793100       0.040100
     1771.950000       0.039600
     1772.107000       0.039100
     1772.264100       0.038600
     1772.421100       0.038100
     1772.578200       0.037600
     1772.735300       0.037100
     1772.892500       0.036700
     1773.049600       0.036200
     1773.206800       0.035800
     1773.364100       0.035300
     1773.521300       0.034900
     1773.678600       0.034400
     1773.835900       0.034000
     1773.993300       0.033600
     1774.150600       0.033200
     1774.308000       0.032800
     1774.465400       0.032400
     1774.622900       0.032000
     1774.780400       0.031700
     1774.937900       0.031300
     1775.095400       0.030900
     1775.253000       0.030600
     1775.410600       0.030300
     1775.568200       0.029900
     1775.725800       0.029600
     1775.883500       0.029300
     1776.041200       0.029000
     1776.198900       0.028700
     1776.356700       0.028500
     1776.514500       0.028200
     1776.672300       0.027900
     1776.830100       0.027700
     1776.988000       0.027400
     1777.145900       0.027200
     1777.303800       0.026900
     1777.461800       0.026700
     1777.619800       0.026500
     1777.777800       0.026300
     1777.935800       0.026100
     1778.093900       0.025900
     1778.252000       0.025700
     1778.410100       0.025500
     1778.568300       0.025400
     1778.726400       0.025200
     1778.884600       0.025100
     1779.042900       0.024900
     1779.201100       0.024700
     1779.359400       0.024600
     1779.517800       0.024500
     1779.676100       0.024300
     1779.834500       0.024200
     1779.992900       0.024000
     1780.151300       0.023900
     1780.309800       0.023700
     1780.468300       0.023600
     1780.626800       0.023400
     1780.785300       0.023300
     1780.943900       0.023100
     1781.102500       0.022900
     1781.261100       0.022800
     1781.419800       0.022600
     1781.578500       0.022400
     1781.737200       0.022200
     1781.895900       0.022000
     1782.054700       0.021800
     1782.213500       0.021600
     1782.372300       0.021300
     1782.531200       0.021100
     1782.690100       0.020900
     1782.849000       0.020600
     1783.007900       0.020400
     1783.166900       0.020100
     1783.325900       0.019900
     1783.484900       0.019600
     1783.644000       0.019300
     1783.803100       0.019100
     1783.962200       0.018800
     1784.121300       0.018600
     1784.280500       0.018300
     1784.439700       0.018100
     1784.598900       0.017800
     1784.758200       0.017600
     1784.917400       0.017400
     1785.076800       0.017200
     1785.236100       0.016900
     1785.395500       0.016700
     1785.554900       0.016600
     1785.714300       0.016400
     1785.873700       0.016200
     1786.033200       0.016100
     1786.192700       0.015900
     1786.352300       0.015800
     1786.511800       0.015700
     1786.671400       0.015600
     1786.831100       0.015500
     1786.990700       0.015400
     1787.150400       0.015300
     1787.310100       0.015300
     1787.469800       0.015200
     1787.629600       0.015100
     1787.789400       0.015100
     1787.949200       0.015000
     1788.109100       0.015000
     1788.269000       0.014900
     1788.428900       0.014900
     1788.588800       0.014800
     1788.748800       0.014800
     1788.908800       0.014700
     1789.068800       0.014600
     1789.228800       0.014600
     1789.388900       0.014500
     1789.549000       0.014400
     1789.709200       0.014400
     1789.869300       0.014300
     1790.029500       0.014200
     1790.189800       0.014100
     1790.350000       0.014000
     1790.510300       0.013900
     1790.670600       0.013800
     1790.830900       0.013700
     1790.991300       0.013600
     1791.151700       0.013500
     1791.312100       0.013400
     1791.472600       0.013300
     1791.633100       0.013100
     1791.793600       0.013000
     1791.954100       0.012900
     1792.114700       0.012800
     1792.275300       0.012700
     1792.435900       0.012600
     1792.596600       0.012500
     1792.757300       0.012400
     1792.918000       0.012300
     1793.078700       0.012200
     1793.239500       0.012100
     1793.400300       0.012000
     1793.561100       0.011900
     1793.722000       0.011900
     1793.882900       0.011800
     1794.043800       0.011700
     1794.204700       0.011700
     1794.365700       0.011600
     1794.526700       0.011600
     1794.687700       0.011500
     1794.848800       0.011500
     1795.009900       0.011500
     1795.171000       0.011400
     1795.332100       0.011400
     1795.493300       0.011300
     1795.654500       0.011300
     1795.815700       0.011300
     1795.977000       0.011200
     1796.138300       0.011200
     1796.299600       0.011100
     1796.461000       0.011100
     1796.622300       0.011000
     1796.783800       0.010900
     1796.945200       0.010900
     1797.106700       0.010800
     1797.268200       0.010700
     1797.429700       0.010600
     1797.591200       0.010600
     1797.752800       0.010500
     1797.914400       0.010400
     1798.076100       0.010200
     1798.237700       0.010100
     1798.399400       0.010000
     1798.561200       0.009900
     1798.722900       0.009800
     1798.884700       0.009600
     1799.046500       0.009500
     1799.208300       0.009400
     1799.370200       0.009300
     1799.532100       0.009200
     1799.694100       0.009000
     1799.856000       0.008900
     1800.018000       0.008800
     1800.180000       0.008700
     1800.342100       0.008600
     1800.504100       0.008500
     1800.666200       0.008400
     1800.828400       0.008300
     1800.990500       0.008200
     1801.152700       0.008100
     1801.315000       0.008000
     1801.477200       0.008000
     1801.639500       0.007900
     1801.801800       0.007900
     1801.964100       0.007800
     1802.126500       0.007800
     1802.288900       0.007800
     1802.451300       0.007700
     1802.613800       0.007700
     1802.776300       0.007700
     1802.938800       0.007700
     1803.101300       0.007700
     1803.263900       0.007700
     1803.426500       0.007600
     1803.589100       0.007600
     1803.751800       0.007600
     1803.914500       0.007600
     1804.077200       0.007600
     1804.240000       0.007600
     1804.402700       0.007600
     1804.565600       0.007500
     1804.728400       0.007500
     1804.891300       0.007500
     1805.054200       0.007500
     1805.217100       0.007400
     1805.380000       0.007400
     1805.543000       0.007300
     1805.706000       0.007300
     1805.869100       0.007200
     1806.032100       0.007200
     1806.195200       0.007100
     1806.358400       0.007000
     1806.521500       0.007000
     1806.684700       0.006900
     1806.848000       0.006900
     1807.011200       0.006800
     1807.174500       0.006700
     1807.337800       0.006700
     1807.501100       0.006600
     1807.664500       0.006500
     1807.827900       0.006500
     1807.991300       0.006400
     1808.154800       0.006400
     1808.318300       0.006300
     1808.481800       0.006300
     1808.645300       0.006200
     1808.808900       0.006200
     1808.972500       0.006100
     1809.136100       0.006100
     1809.299800       0.006100
     1809.463500       0.006100
     1809.627200       0.006100
     1809.791000       0.006100
     1809.954800       0.006100
     1810.118600       0.006000
     1810.282400       0.006000
     1810.446300       0.006000
     1810.610200       0.006000
     1810.774100       0.006000
     1810.938100       0.006000
     1811.102100       0.006000
     1811.266100       0.006000
     1811.430100       0.006000
     1811.594200       0.006000
     1811.758300       0.006000
     1811.922400       0.006000
     1812.086600       0.006000
     1812.250800       0.006000
     1812.415000       0.006000
     1812.579300       0.005900
     1812.743600       0.005900
     1812.907900       0.005900
     1813.072300       0.005800
     1813.236600       0.005800
     1813.401000       0.005700
     1813.565500       0.005700
     1813.729900       0.005600
     1813.894400       0.005500
     1814.059000       0.005500
     1814.223500       0.005400
     1814.388100       0.005300
     1814.552700       0.005300
     1814.717400       0.005200
     1814.882000       0.005100
     1815.046700       0.005100
     1815.211500       0.005000
     1815.376200       0.004900
     1815.541000       0.004900
     1815.705900       0.004800
     1815.870700       0.004700
     1816.035600       0.004700
     1816.200500       0.004700
     1816.365500       0.004600
     1816.530400       0.004600
     1816.695400       0.004600
     1816.860500       0.004500
     1817.025500       0.004500
     1817.190600       0.004500
     1817.355700       0.004500
     1817.520900       0.004500
     1817.686100       0.004500
     1817.851300       0.004600
     1818.016500       0.004600
     1818.181800       0.004600
     1818.347100       0.004600
     1818.512500       0.004600
     1818.677800       0.004700
     1818.843200       0.004700
     1819.008600       0.004700
     1819.174100       0.004700
     1819.339600       0.004700
     1819.505100       0.004800
     1819.670600       0.004800
     1819.836200       0.004800
     1820.001800       0.004800
     1820.167500       0.004800
     1820.333100       0.004800
     1820.498800       0.004800
     1820.664500       0.004800
     1820.830300       0.004800
     1820.996100       0.004700
     1821.161900       0.004700
     1821.327700       0.004700
     1821.493600       0.004600
     1821.659500       0.004600
     1821.825500       0.004600
     1821.991400       0.004500
     1822.157400       0.004500
     1822.323500       0.004400
     1822.489500       0.004400
     1822.655600       0.004300
     1822.821700       0.004300
     1822.987900       0.004200
     1823.154100       0.004200
     1823.320300       0.004200
     1823.486500       0.004100
     1823.652800       0.004100
     1823.819100       0.004100
     1823.985400       0.004000
     1824.151800       0.004000
     1824.318200       0.004000
     1824.484600       0.004000
     1824.651000       0.004000
     1824.817500       0.004000
     1824.984000       0.004000
     1825.150600       0.004000
     1825.317100       0.004000
     1825.483800       0.004000
     1825.650400       0.004000
     1825.817100       0.004100
     1825.983700       0.004100
     1826.150500       0.004100
     1826.317200       0.004100
     1826.484000       0.004100
     1826.650800       0.004200
     1826.817700       0.004200
     1826.984600       0.004200
     1827.151500       0.004200
     1827.318400       0.004200
     1827.485400       0.004200
     1827.652400       0.004200
     1827.819400       0.004200
     1827.986500       0.004200
     1828.153600       0.004200
     1828.320700       0.004200
     1828.487800       0.004100
     1828.655000       0.004100
     1828.822200       0.004100
     1828.989500       0.004000
     1829.156800       0.004000
     1829.324100       0.003900
     1829.491400       0.003900
     1829.658800       0.003800
     1829.826200       0.003800
     1829.993600       0.003700
     1830.161100       0.003700
     1830.328500       0.003600
     1830.496100       0.003600
     1830.663600       0.003500
     1830.831200       0.003500
     1830.998800       0.003400
     1831.166500       0.003400
     1831.334100       0.003300
     1831.501800       0.003300
     1831.669600       0.003200
     1831.837300       0.003200
     1832.005100       0.003200
     1832.173000       0.003200
     1832.340800       0.003200
     1832.508700       0.003200
     1832.676600       0.003200
     1832.844600       0.003200
     1833.012600       0.003200
     1833.180600       0.003200
     1833.348600       0.003200
     1833.516700       0.003200
     1833.684800       0.003200
     1833.852900       0.003300
     1834.021100       0.003300
     1834.189300       0.003300
     1834.357500       0.003300
     1834.525800       0.003400
     1834.694100       0.003400
     1834.862400       0.003400
     1835.030700       0.003400
     1835.199100       0.003400
     1835.367500       0.003400
     1835.536000       0.003400
     1835.704500       0.003400
     1835.873000       0.003400
     1836.041500       0.003400
     1836.210100       0.003400
     1836.378700       0.003400
     1836.547300       0.003400
     1836.716000       0.003300
     1836.884600       0.003300
     1837.053400       0.003300
     1837.222100       0.003200
     1837.390900       0.003200
     1837.559700       0.003200
     1837.728600       0.003100
     1837.897400       0.003100
     1838.066400       0.003000
     1838.235300       0.003000
     1838.404300       0.003000
     1838.573300       0.002900
     1838.742300       0.002900
     1838.911400       0.002900
     1839.080500       0.002800
     1839.249600       0.002800
     1839.418700       0.002800
     1839.587900       0.002800
     1839.757200       0.002800
     1839.926400       0.002800
     1840.095700       0.002800
     1840.265000       0.002800
     1840.434300       0.002800
     1840.603700       0.002800
     1840.773100       0.002800
     1840.942600       0.002800
     1841.112000       0.002800
     1841.281500       0.002900
     1841.451100       0.002900
     1841.620600       0.002900
     1841.790200       0.002900
     1841.959800       0.003000
     1842.129500       0.003000
     1842.299200       0.003000
     1842.468900       0.003000
     1842.638700       0.003100
     1842.808400       0.003100
     1842.978300       0.003100
     1843.148100       0.003100
     1843.318000       0.003100
     1843.487900       0.003100
     1843.657800       0.003100
     1843.827800       0.003100
     1843.997800       0.003100
     1844.167800       0.003000
     1844.337900       0.003000
     1844.508000       0.003000
     1844.678100       0.003000
     1844.848300       0.002900
     1845.018500       0.002900
     1845.188700       0.002800
     1845.358900       0.002800
     1845.529200       0.002800
     1845.699500       0.002700
     1845.869900       0.002700
     1846.040200       0.002600
     1846.210700       0.002600
     1846.381100       0.002600
     1846.551600       0.002500
     1846.722100       0.002500
     1846.892600       0.002500
     1847.063200       0.002400
     1847.233800       0.002400
     1847.404400       0.002400
     1847.575100       0.002400
     1847.745800       0.002400
     1847.916500       0.002400
     1848.087200       0.002400
     1848.258000       0.002400
     1848.428800       0.002400
     1848.599700       0.002400
     1848.770600       0.002500
     1848.941500       0.002500
     1849.112400       0.002500
     1849.283400       0.002500
     1849.454400       0.002500
     1849.625500       0.002600
     1849.796500       0.002600
     1849.967600       0.002600
     1850.138800       0.002600
     1850.309900       0.002700
     1850.481100       0.002700
     1850.652400       0.002700
     1850.823600       0.002700
     1850.994900       0.002700
     1851.166200       0.002700
     1851.337600       0.002700
     1851.509000       0.002700
     1851.680400       0.002700
     1851.851900       0.002700
     1852.023300       0.002600
     1852.194900       0.002600
     1852.366400       0.002600
     1852.538000       0.002600
     1852.709600       0.002500
     1852.881200       0.002500
     1853.052900       0.002500
     1853.224600       0.002400
     1853.396300       0.002400
     1853.568100       0.002400
     1853.739900       0.002300
     1853.911800       0.002300
     1854.083600       0.002200
     1854.255500       0.002200
     1854.427400       0.002200
     1854.599400       0.002200
     1854.771400       0.002100
     1854.943400       0.002100
     1855.115500       0.002100
     1855.287600       0.002100
     1855.459700       0.002100
     1855.631800       0.002100
     1855.804000       0.002100
     1855.976200       0.002100
     1856.148500       0.002100
     1856.320800       0.002100
     1856.493100       0.002100
     1856.665400       0.002200
     1856.837800       0.002200
     1857.010200       0.002200
     1857.182700       0.002200
     1857.355100       0.002200
     1857.527600       0.002300
     1857.700200       0.002300
     1857.872700       0.002300
     1858.045300       0.002300
     1858.218000       0.002300
     1858.390600       0.002300
     1858.563300       0.002300
     1858.736100       0.002400
     1858.908800       0.002400
     1859.081600       0.002400
     1859.254400       0.002300
     1859.427300       0.002300
     1859.600200       0.002300
     1859.773100       0.002300
     1859.946100       0.002300
     1860.119000       0.002300
     1860.292100       0.002200
     1860.465100       0.002200
     1860.638200       0.002200
     1860.811300       0.002200
     1860.984500       0.002100
     1861.157600       0.002100
     1861.330900       0.002100
     1861.504100       0.002000
     1861.677400       0.002000
     1861.850700       0.002000
     1862.024000       0.002000
     1862.197400       0.002000
     1862.370800       0.002000
     1862.544200       0.001900
     1862.717700       0.001900
     1862.891200       0.001900
     1863.064700       0.001900
     1863.238300       0.002000
     1863.411900       0.002000
     1863.585500       0.002000
     1863.759200       0.002000
     1863.932900       0.002000
     1864.106600       0.002100
     1864.280400       0.002100
     1864.454200       0.002100
     1864.628000       0.002100
     1864.801900       0.002200
     1864.975800       0.002200
     1865.149700       0.002200
     1865.323600       0.002300
     1865.497600       0.002300
     1865.671600       0.002300
     1865.845700       0.002300
     1866.019800       0.002400
     1866.193900       0.002400
     1866.368000       0.002400
     1866.542200       0.002400
     1866.716400       0.002400
     1866.890700       0.002400
     1867.065000       0.002400
     1867.239300       0.002400
     1867.413600       0.002400
     1867.588000       0.002400
     1867.762400       0.002300
     1867.936900       0.002300
     1868.111300       0.002300
     1868.285800       0.002300
     1868.460400       0.002200
     1868.635000       0.002200
     1868.809600       0.002200
     1868.984200       0.002100
     1869.158900       0.002100
     1869.333600       0.002100
     1869.508300       0.002000
     1869.683100       0.002000
     1869.857900       0.002000
     1870.032700       0.002000
     1870.207600       0.001900
     1870.382500       0.001900
     1870.557400       0.001900
     1870.732400       0.001900
     1870.907400       0.001900
     1871.082400       0.001900
     1871.257500       0.001900
     1871.432600       0.001900
     1871.607700       0.001900
     1871.782900       0.001900
     1871.958100       0.001900
     1872.133300       0.002000
     1872.308600       0.002000
     1872.483800       0.002000
     1872.659200       0.002000
     1872.834500       0.002000
     1873.009900       0.002100
     1873.185400       0.002100
     1873.360800       0.002100
     1873.536300       0.002100
     1873.711800       0.002100
     1873.887400       0.002100
     1874.063000       0.002100
     1874.238600       0.002100
     1874.414200       0.002100
     1874.589900       0.002100
     1874.765700       0.002100
     1874.941400       0.002100
     1875.117200       0.002100
     1875.293000       0.002100
     1875.468900       0.002100
     1875.644800       0.002100
     1875.820700       0.002000
     1875.996600       0.002000
     1876.172600       0.002000
     1876.348600       0.002000
     1876.524700       0.002000
     1876.700800       0.001900
     1876.876900       0.001900
     1877.053000       0.001900
     1877.229200       0.001900
     1877.405400       0.001900
     1877.581700       0.001800
     1877.758000       0.001800
     1877.934300       0.001800
     1878.110600       0.001800
     1878.287000       0.001800
     1878.463400       0.001800
     1878.639900       0.001800
     1878.816300       0.001800
     1878.992900       0.001800
     1879.169400       0.001800
     1879.346000       0.001900
     1879.522600       0.001900
     1879.699200       0.001900
     1879.875900       0.001900
     1880.052600       0.001900
     1880.229400       0.002000
     1880.406200       0.002000
     1880.583000       0.002000
     1880.759800       0.002000
     1880.936700       0.002000
     1881.113600       0.002100
     1881.290600       0.002100
     1881.467500       0.002100
     1881.644600       0.002100
     1881.821600       0.002100
     1881.998700       0.002100
     1882.175800       0.002100
     1882.352900       0.002100
     1882.530100       0.002100
     1882.707300       0.002100
     1882.884600       0.002100
     1883.061900       0.002100
     1883.239200       0.002100
     1883.416500       0.002000
     1883.593900       0.002000
     1883.771300       0.002000
     1883.948800       0.002000
     1884.126200       0.001900
     1884.303700       0.001900
     1884.481300       0.001900
     1884.658900       0.001900
     1884.836500       0.001900
     1885.014100       0.001800
     1885.191800       0.001800
     1885.369500       0.001800
     1885.547300       0.001800
     1885.725100       0.001800
     1885.902900       0.001800
     1886.080700       0.001800
     1886.258600       0.001800
     1886.436500       0.001800
     1886.614500       0.001800
     1886.792500       0.001800
     1886.970500       0.001800
     1887.148500       0.001800
     1887.326600       0.001800
     1887.504700       0.001900
     1887.682900       0.001900
     1887.861100       0.001900
     1888.039300       0.001900
     1888.217500       0.001900
     1888.395800       0.002000
     1888.574100       0.002000
     1888.752500       0.002000
     1888.930900       0.002000
     1889.109300       0.002000
     1889.287700       0.002000
     1889.466200       0.002100
     1889.644700       0.002100
     1889.823300       0.002100
     1890.001900       0.002100
     1890.180500       0.002100
     1890.359200       0.002100
     1890.537900       0.002100
     1890.716600       0.002100
     1890.895300       0.002000
     1891.074100       0.002000
     1891.253000       0.002000
     1891.431800       0.002000
     1891.610700       0.002000
     1891.789600       0.002000
     1891.968600       0.002000
     1892.147600       0.001900
     1892.326600       0.001900
     1892.505700       0.001900
     1892.684800       0.001900
     1892.863900       0.001900
     1893.043100       0.001900
     1893.222300       0.001900
     1893.401500       0.001900
     1893.580800       0.001900
     1893.760100       0.001900
     1893.939400       0.001900
     1894.118800       0.001900
     1894.298200       0.001900
     1894.477600       0.001900
     1894.657100       0.001900
     1894.836600       0.001900
     1895.016100       0.002000
     1895.195700       0.002000
     1895.375300       0.002000
     1895.554900       0.002000
     1895.734600       0.002000
     1895.914300       0.002100
     1896.094000       0.002100
     1896.273800       0.002100
     1896.453600       0.002100
     1896.633500       0.002100
     1896.813400       0.002100
     1896.993300       0.002100
     1897.173200       0.002200
     1897.353200       0.002200
     1897.533200       0.002200
     1897.713300       0.002200
     1897.893300       0.002200
     1898.073500       0.002200
     1898.253600       0.002200
     1898.433800       0.002100
     1898.614000       0.002100
     1898.794300       0.002100
     1898.974600       0.002100
     1899.154900       0.002100
     1899.335200       0.002100
     1899.515600       0.002000
     1899.696000       0.002000
     1899.876500       0.002000
     1900.057000       0.002000
     1900.237500       0.002000
     1900.418100       0.002000
     1900.598700       0.001900
     1900.779300       0.001900
     1900.960000       0.001900
     1901.140700       0.001900
     1901.321400       0.001900
     1901.502200       0.001900
     1901.683000       0.001900
     1901.863800       0.001900
     1902.044700       0.001900
     1902.225600       0.002000
     1902.406500       0.002000
     1902.587500       0.002000
     1902.768500       0.002000
     1902.949600       0.002000
     1903.130600       0.002100
     1903.311800       0.002100
     1903.492900       0.002100
     1903.674100       0.002100
     1903.855300       0.002100
     1904.036600       0.002200
     1904.217800       0.002200
     1904.399200       0.002200
     1904.580500       0.002200
     1904.761900       0.002200
     1904.943300       0.002200
     1905.124800       0.002300
     1905.306300       0.002300
     1905.487800       0.002300
     1905.669400       0.002300
     1905.851000       0.002300
     1906.032600       0.002300
     1906.214300       0.002300
     1906.396000       0.002200
     1906.577700       0.002200
     1906.759500       0.002200
     1906.941300       0.002200
     1907.123100       0.002200
     1907.305000       0.002200
     1907.486900       0.002200
     1907.668800       0.002100
     1907.850800       0.002100
     1908.032800       0.002100
     1908.214900       0.002100
     1908.396900       0.002100
     1908.579100       0.002100
     1908.761200       0.002100
     1908.943400       0.002100
     1909.125600       0.002100
     1909.307900       0.002100
     1909.490200       0.002100
     1909.672500       0.002100
     1909.854900       0.002100
     1910.037200       0.002100
     1910.219700       0.002100
     1910.402100       0.002100
     1910.584600       0.002100
     1910.767200       0.002100
     1910.949700       0.002100
     1911.132300       0.002100
     1911.315000       0.002100
     1911.497700       0.002100
     1911.680400       0.002100
     1911.863100       0.002100
     1912.045900       0.002200
     1912.228700       0.002200
     1912.411600       0.002200
     1912.594400       0.002200
     1912.777400       0.002200
     1912.960300       0.002100
     1913.143300       0.002100
     1913.326300       0.002100
     1913.509400       0.002100
     1913.692500       0.002100
     1913.875600       0.002100
     1914.058800       0.002100
     1914.242000       0.002000
     1914.425200       0.002000
     1914.608500       0.002000
     1914.791800       0.002000
     1914.975100       0.002000
     1915.158500       0.001900
     1915.341900       0.001900
     1915.525300       0.001900
     1915.708800       0.001900
     1915.892300       0.001900
     1916.075900       0.001800
     1916.259500       0.001800
     1916.443100       0.001800
     1916.626700       0.001800
     1916.810400       0.001800
     1916.994200       0.001800
     1917.177900       0.001800
     1917.361700       0.001800
     1917.545500       0.001800
     1917.729400       0.001800
     1917.913300       0.001800
     1918.097200       0.001800
     1918.281200       0.001800
     1918.465200       0.001800
     1918.649300       0.001800
     1918.833300       0.001800
     1919.017500       0.001800
     1919.201600       0.001900
     1919.385800       0.001900
     1919.570000       0.001900
     1919.754300       0.001900
     1919.938600       0.001900
     1920.122900       0.001900
     1920.307200       0.001900
     1920.491600       0.001900
     1920.676100       0.001900
     1920.860500       0.001900
     1921.045000       0.001900
     1921.229600       0.001800
     1921.414200       0.001800
     1921.598800       0.001800
     1921.783400       0.001800
     1921.968100       0.001800
     1922.152800       0.001800
     1922.337600       0.001700
     1922.522300       0.001700
     1922.707200       0.001700
     1922.892000       0.001700
     1923.076900       0.001600
     1923.261900       0.001600
     1923.446800       0.001600
     1923.631800       0.001600
     1923.816900       0.001500
     1924.001900       0.001500
     1924.187000       0.001500
     1924.372200       0.001500
     1924.557400       0.001500
     1924.742600       0.001500
     1924.927800       0.001400
     1925.113100       0.001400
     1925.298400       0.001400
     1925.483800       0.001400
     1925.669200       0.001400
     1925.854600       0.001400
     1926.040100       0.001400
     1926.225600       0.001400
     1926.411100       0.001400
     1926.596700       0.001400
     1926.782300       0.001400
     1926.967900       0.001400
     1927.153600       0.001400
     1927.339300       0.001400
     1927.525100       0.001400
     1927.710800       0.001400
     1927.896700       0.001400
     1928.082500       0.001400
     1928.268400       0.001400
     1928.454300       0.001300
     1928.640300       0.001300
     1928.826300       0.001300
     1929.012300       0.001300
     1929.198400       0.001300
     1929.384500       0.001300
     1929.570700       0.001200
     1929.756900       0.001200
     1929.943100       0.001200
     1930.129300       0.001200
     1930.315600       0.001200
     1930.501900       0.001100
     1930.688300       0.001100
     1930.874700       0.001100
     1931.061100       0.001100
     1931.247600       0.001100
     1931.434100       0.001000
     1931.620600       0.001000
     1931.807200       0.001000
     1931.993800       0.001000
     1932.180500       0.001000
     1932.367100       0.001000
     1932.553900       0.000900
     1932.740600       0.000900
     1932.927400       0.000900
     1933.114200       0.000900
     1933.301100       0.000900
     1933.488000       0.000900
     1933.674900       0.000900
     1933.861900       0.000900
     1934.048900       0.000900
     1934.236000       0.000900
     1934.423100       0.000900
     1934.610200       0.000900
     1934.797300       0.000900
     1934.984500       0.000900
     1935.171700       0.000900
     1935.359000       0.000900
     1935.546300       0.000900
     1935.733600       0.000900
     1935.921000       0.000900
     1936.108400       0.000900
     1936.295900       0.000900
     1936.483300       0.000900
     1936.670900       0.000800
     1936.858400       0.000800
     1937.046000       0.000800
     1937.233600       0.000800
     1937.421300       0.000800
     1937.609000       0.000800
     1937.796700       0.000800
     1937.984500       0.000700
     1938.172300       0.000700
     1938.360100       0.000700
     1938.548000       0.000700
     1938.735900       0.000700
     1938.923900       0.000700
     1939.111900       0.000700
     1939.299900       0.000600
     1939.488000       0.000600
     1939.676100       0.000600
     1939.864200       0.000600
     1940.052400       0.000600
     1940.240600       0.000600
     1940.428800       0.000600
     1940.617100       0.000600
     1940.805400       0.000600
     1940.993800       0.000600
     1941.182200       0.000600
     1941.370600       0.000600
     1941.559100       0.000600
     1941.747600       0.000600
     1941.936100       0.000600
     1942.124700       0.000600
     1942.313300       0.000600
     1942.501900       0.000600
     1942.690600       0.000600
     1942.879300       0.000600
     1943.068100       0.000600
     1943.256900       0.000600
     1943.445700       0.000600
     1943.634600       0.000600
     1943.823500       0.000600
     1944.012400       0.000600
     1944.201400       0.000600
     1944.390400       0.000600
     1944.579500       0.000600
     1944.768600       0.000600
     1944.957700       0.000500
     1945.146900       0.000500
     1945.336100       0.000500
     1945.525300       0.000500
     1945.714600       0.000500
     1945.903900       0.000500
     1946.093200       0.000500
     1946.282600       0.000500
     1946.472000       0.000400
     1946.661500       0.000400
     1946.851000       0.000400
     1947.040500       0.000400
     1947.230100       0.000400
     1947.419700       0.000400
     1947.609300       0.000400
     1947.799000       0.000400
     1947.988700       0.000400
     1948.178500       0.000400
     1948.368200       0.000400
     1948.558100       0.000400
     1948.747900       0.000400
     1948.937800       0.000400
     1949.127800       0.000400
     1949.317700       0.000400
     1949.507700       0.000400
     1949.697800       0.000400
     1949.887900       0.000400
     1950.078000       0.000400
     1950.268200       0.000400
     1950.458400       0.000400
     1950.648600       0.000400
     1950.838900       0.000400
     1951.029200       0.000400
     1951.219500       0.000400
     1951.409900       0.000400
     1951.600300       0.000400
     1951.790800       0.000400
     1951.981300       0.000400
     1952.171800       0.000400
     1952.362400       0.000400
     1952.553000       0.000400
     1952.743600       0.000400
     1952.934300       0.000400
     1953.125000       0.000300
     1953.315800       0.000300
     1953.506500       0.000300
     1953.697400       0.000300
     1953.888200       0.000300
     1954.079100       0.000300
     1954.270100       0.000300
     1954.461100       0.000300
     1954.652100       0.000300
     1954.843100       0.000300
     1955.034200       0.000200
     1955.225300       0.000200
     1955.416500       0.000200
     1955.607700       0.000200
     1955.798900       0.000200
     1955.990200       0.000200
     1956.181500       0.000200
     1956.372900       0.000200
     1956.564300       0.000200
     1956.755700       0.000200
     1956.947200       0.000300
     1957.138700       0.000300
     1957.330200       0.000300
     1957.521800       0.000300
     1957.713400       0.000300
     1957.905000       0.000300
     1958.096700       0.000300
     1958.288500       0.000300
     1958.480200       0.000300
     1958.672000       0.000300
     1958.863900       0.000300
     1959.055700       0.000300
     1959.247600       0.000300
     1959.439600       0.000300
     1959.631600       0.000300
     1959.823600       0.000300
     1960.015700       0.000300
     1960.207800       0.000300
     1960.399900       0.000300
     1960.592100       0.000300
     1960.784300       0.000300
     1960.976600       0.000300
     1961.168900       0.000300
     1961.361200       0.000200
     1961.553600       0.000200
     1961.746000       0.000200
     1961.938400       0.000200
     1962.130900       0.000200
     1962.323400       0.000200
     1962.515900       0.000200
     1962.708500       0.000200
     1962.901200       0.000200
     1963.093800       0.000200
     1963.286500       0.000200
     1963.479300       0.000200
     1963.672100       0.000200
     1963.864900       0.000200
     1964.057700       0.000200
     1964.250600       0.000200
     1964.443600       0.000200
     1964.636500       0.000200
     1964.829600       0.000200
     1965.022600       0.000200
     1965.215700       0.000200
     1965.408800       0.000200
     1965.602000       0.000200
     1965.795200       0.000200
     1965.988400       0.000200
     1966.181700       0.000200
     1966.375000       0.000200
     1966.568300       0.000200
     1966.761700       0.000300
     1966.955200       0.000300
     1967.148600       0.000200
     1967.342100       0.000200
     1967.535700       0.000200
     1967.729200       0.000200
     1967.922900       0.000200
     1968.116500       0.000200
     1968.310200       0.000200
     1968.503900       0.000200
     1968.697700       0.000200
     1968.891500       0.000200
     1969.085400       0.000200
     1969.279200       0.000200
     1969.473200       0.000200
     1969.667100       0.000100
     1969.861100       0.000100
     1970.055200       0.000100
     1970.249200       0.000100
     1970.443300       0.000100
     1970.637500       0.000100
     1970.831700       0.000100
     1971.025900       0.000100
     1971.220200       0.000100
     1971.414500       0.000100
     1971.608800       0.000100
     1971.803200       0.000100
     1971.997600       0.000100
     1972.192100       0.000100
     1972.386600       0.000100
     1972.581100       0.000100
     1972.775700       0.000100
     1972.970300       0.000100
     1973.165000       0.000200
     1973.359600       0.000200
     1973.554400       0.000200
     1973.749100       0.000200
     1973.943900       0.000200
     1974.138800       0.000200
     1974.333700       0.000200
     1974.528600       0.000200
     1974.723500       0.000200
     1974.918500       0.000200
     1975.113600       0.000200
     1975.308600       0.000200
     1975.503800       0.000200
     1975.698900       0.000200
     1975.894100       0.000200
     1976.089300       0.000200
     1976.284600       0.000200
     1976.479900       0.000200
     1976.675200       0.000200
     1976.870600       0.000200
     1977.066000       0.000200
     1977.261500       0.000100
     1977.457000       0.000100
     1977.652500       0.000100
     1977.848100       0.000100
     1978.043700       0.000100
     1978.239400       0.000100
     1978.435100       0.000100
     1978.630800       0.000100
     1978.826600       0.000100
     1979.022400       0.000100
     1979.218200       0.000100
     1979.414100       0.000100
     1979.610000       0.000200
     1979.806000       0.000200
     1980.002000       0.000200
     1980.198000       0.000200
     1980.394100       0.000200
     1980.590200       0.000200
     1980.786400       0.000200
     1980.982600       0.000200
