3,   channel 3 SRF from file SRF_SIRS-A_Ch03.asc received July 2020 from Andrzej Kloneki
Number of data points:
281
Wavenumber (cm-1)   Filter response
      707.300000       0.000000
      707.350000       0.000000
      707.400000       0.000000
      707.450000       0.000000
      707.500000       0.000000
      707.550000       0.000000
      707.600000       0.000000
      707.650000       0.000000
      707.700000       0.000000
      707.750000       0.000000
      707.800000       0.000000
      707.850000       0.000000
      707.900000       0.000000
      707.950000       0.000000
      708.000000       0.000000
      708.050000       0.000000
      708.100000       0.000000
      708.150000       0.000000
      708.200000       0.000000
      708.250000       0.000000
      708.300000       0.000000
      708.350000       0.000000
      708.400000       0.000000
      708.450000       0.000000
      708.500000       0.000000
      708.550000       0.000000
      708.600000       0.000000
      708.650000       0.000000
      708.700000       0.000000
      708.750000       0.000000
      708.800000       0.000000
      708.850000       0.000000
      708.900000       0.000000
      708.950000       0.001400
      709.000000       0.011400
      709.050000       0.021400
      709.100000       0.031400
      709.150000       0.041400
      709.200000       0.051400
      709.250000       0.061400
      709.300000       0.071400
      709.350000       0.081400
      709.400000       0.091400
      709.450000       0.101400
      709.500000       0.111400
      709.550000       0.121400
      709.600000       0.131400
      709.650000       0.141400
      709.700000       0.151400
      709.750000       0.161400
      709.800000       0.171400
      709.850000       0.181400
      709.900000       0.191400
      709.950000       0.201400
      710.000000       0.211400
      710.050000       0.221400
      710.100000       0.231400
      710.150000       0.241400
      710.200000       0.251400
      710.250000       0.261400
      710.300000       0.271400
      710.350000       0.281400
      710.400000       0.291400
      710.450000       0.301400
      710.500000       0.311400
      710.550000       0.321400
      710.600000       0.331400
      710.650000       0.341400
      710.700000       0.351400
      710.750000       0.361400
      710.800000       0.371400
      710.850000       0.381400
      710.900000       0.391400
      710.950000       0.401400
      711.000000       0.411400
      711.050000       0.421400
      711.100000       0.431400
      711.150000       0.441400
      711.200000       0.451400
      711.250000       0.461400
      711.300000       0.471400
      711.350000       0.481400
      711.400000       0.491400
      711.450000       0.501400
      711.500000       0.511400
      711.550000       0.521400
      711.600000       0.531400
      711.650000       0.541400
      711.700000       0.551400
      711.750000       0.561400
      711.800000       0.571400
      711.850000       0.581400
      711.900000       0.591400
      711.950000       0.601400
      712.000000       0.611400
      712.050000       0.621400
      712.100000       0.631400
      712.150000       0.641400
      712.200000       0.651400
      712.250000       0.661400
      712.300000       0.671400
      712.350000       0.681400
      712.400000       0.691400
      712.450000       0.701400
      712.500000       0.711400
      712.550000       0.721400
      712.600000       0.731400
      712.650000       0.741400
      712.700000       0.751400
      712.750000       0.761400
      712.800000       0.771400
      712.850000       0.781400
      712.900000       0.791400
      712.950000       0.801400
      713.000000       0.811400
      713.050000       0.821400
      713.100000       0.831400
      713.150000       0.841400
      713.200000       0.851400
      713.250000       0.861400
      713.300000       0.871400
      713.350000       0.881400
      713.400000       0.891400
      713.450000       0.901400
      713.500000       0.911400
      713.550000       0.921400
      713.600000       0.931400
      713.650000       0.941400
      713.700000       0.951400
      713.750000       0.961400
      713.800000       0.971400
      713.850000       0.981400
      713.900000       0.991400
      713.950000       1.000000
      714.000000       1.000000
      714.050000       1.000000
      714.100000       1.000000
      714.150000       1.000000
      714.200000       1.000000
      714.250000       1.000000
      714.300000       1.000000
      714.350000       1.000000
      714.400000       1.000000
      714.450000       1.000000
      714.500000       1.000000
      714.550000       1.000000
      714.600000       1.000000
      714.650000       1.000000
      714.700000       0.991400
      714.750000       0.981400
      714.800000       0.971400
      714.850000       0.961400
      714.900000       0.951400
      714.950000       0.941400
      715.000000       0.931400
      715.050000       0.921400
      715.100000       0.911400
      715.150000       0.901400
      715.200000       0.891400
      715.250000       0.881400
      715.300000       0.871400
      715.350000       0.861400
      715.400000       0.851400
      715.450000       0.841400
      715.500000       0.831400
      715.550000       0.821400
      715.600000       0.811400
      715.650000       0.801400
      715.700000       0.791400
      715.750000       0.781400
      715.800000       0.771400
      715.850000       0.761400
      715.900000       0.751400
      715.950000       0.741400
      716.000000       0.731400
      716.050000       0.721400
      716.100000       0.711400
      716.150000       0.701400
      716.200000       0.691400
      716.250000       0.681400
      716.300000       0.671400
      716.350000       0.661400
      716.400000       0.651400
      716.450000       0.641400
      716.500000       0.631400
      716.550000       0.621400
      716.600000       0.611400
      716.650000       0.601400
      716.700000       0.591400
      716.750000       0.581400
      716.800000       0.571400
      716.850000       0.561400
      716.900000       0.551400
      716.950000       0.541400
      717.000000       0.531400
      717.050000       0.521400
      717.100000       0.511400
      717.150000       0.501400
      717.200000       0.491400
      717.250000       0.481400
      717.300000       0.471400
      717.350000       0.461400
      717.400000       0.451400
      717.450000       0.441400
      717.500000       0.431400
      717.550000       0.421400
      717.600000       0.411400
      717.650000       0.401400
      717.700000       0.391400
      717.750000       0.381400
      717.800000       0.371400
      717.850000       0.361400
      717.900000       0.351400
      717.950000       0.341400
      718.000000       0.331400
      718.050000       0.321400
      718.100000       0.311400
      718.150000       0.301400
      718.200000       0.291400
      718.250000       0.281400
      718.300000       0.271400
      718.350000       0.261400
      718.400000       0.251400
      718.450000       0.241400
      718.500000       0.231400
      718.550000       0.221400
      718.600000       0.211400
      718.650000       0.201400
      718.700000       0.191400
      718.750000       0.181400
      718.800000       0.171400
      718.850000       0.161400
      718.900000       0.151400
      718.950000       0.141400
      719.000000       0.131400
      719.050000       0.121400
      719.100000       0.111400
      719.150000       0.101400
      719.200000       0.091400
      719.250000       0.081400
      719.300000       0.071400
      719.350000       0.061400
      719.400000       0.051400
      719.450000       0.041400
      719.500000       0.031400
      719.550000       0.021400
      719.600000       0.011400
      719.650000       0.001400
      719.700000       0.000000
      719.750000       0.000000
      719.800000       0.000000
      719.850000       0.000000
      719.900000       0.000000
      719.950000       0.000000
      720.000000       0.000000
      720.050000       0.000000
      720.100000       0.000000
      720.150000       0.000000
      720.200000       0.000000
      720.250000       0.000000
      720.300000       0.000000
      720.350000       0.000000
      720.400000       0.000000
      720.450000       0.000000
      720.500000       0.000000
      720.550000       0.000000
      720.600000       0.000000
      720.650000       0.000000
      720.700000       0.000000
      720.750000       0.000000
      720.800000       0.000000
      720.850000       0.000000
      720.900000       0.000000
      720.950000       0.000000
      721.000000       0.000000
      721.050000       0.000000
      721.100000       0.000000
      721.150000       0.000000
      721.200000       0.000000
      721.250000       0.000000
      721.300000       0.000000
