05 , goes_13_sounder_05.flt
Number of data points:
406
Wavenumber (cm-1)   Filter response
      728.200000       0.001001
      728.300000       0.001863
      728.400000       0.002720
      728.500000       0.003429
      728.600000       0.003301
      728.700000       0.003162
      728.800000       0.003016
      728.900000       0.002869
      729.000000       0.002725
      729.100000       0.002587
      729.200000       0.002461
      729.300000       0.002351
      729.400000       0.002262
      729.500000       0.002195
      729.600000       0.002154
      729.700000       0.002142
      729.800000       0.002158
      729.900000       0.002205
      730.000000       0.002281
      730.100000       0.002387
      730.200000       0.002523
      730.300000       0.002685
      730.400000       0.002873
      730.500000       0.003085
      730.600000       0.003319
      730.700000       0.003574
      730.800000       0.003845
      730.900000       0.004132
      731.000000       0.004431
      731.100000       0.004742
      731.200000       0.005060
      731.300000       0.005384
      731.400000       0.005709
      731.500000       0.006034
      731.600000       0.006353
      731.700000       0.006663
      731.800000       0.006961
      731.900000       0.007239
      732.000000       0.007495
      732.100000       0.007723
      732.200000       0.007918
      732.300000       0.008077
      732.400000       0.008196
      732.500000       0.008274
      732.600000       0.008307
      732.700000       0.008295
      732.800000       0.008240
      732.900000       0.008144
      733.000000       0.008012
      733.100000       0.007850
      733.200000       0.007665
      733.300000       0.007467
      733.400000       0.007269
      733.500000       0.007082
      733.600000       0.006918
      733.700000       0.006793
      733.800000       0.006721
      733.900000       0.006717
      734.000000       0.006792
      734.100000       0.006960
      734.200000       0.007231
      734.300000       0.007614
      734.400000       0.008115
      734.500000       0.008739
      734.600000       0.009487
      734.700000       0.010357
      734.800000       0.011346
      734.900000       0.012448
      735.000000       0.013656
      735.100000       0.014958
      735.200000       0.016343
      735.300000       0.017800
      735.400000       0.019317
      735.500000       0.020879
      735.600000       0.022477
      735.700000       0.024105
      735.800000       0.025749
      735.900000       0.027410
      736.000000       0.029081
      736.100000       0.030759
      736.200000       0.032450
      736.300000       0.034158
      736.400000       0.035887
      736.500000       0.037646
      736.600000       0.039450
      736.700000       0.041313
      736.800000       0.043254
      736.900000       0.045288
      737.000000       0.047432
      737.100000       0.049704
      737.200000       0.052120
      737.300000       0.054696
      737.400000       0.057447
      737.500000       0.060379
      737.600000       0.063507
      737.700000       0.066847
      737.800000       0.070397
      737.900000       0.074167
      738.000000       0.078161
      738.100000       0.082391
      738.200000       0.086859
      738.300000       0.091568
      738.400000       0.096528
      738.500000       0.101737
      738.600000       0.107209
      738.700000       0.112967
      738.800000       0.119012
      738.900000       0.125365
      739.000000       0.132049
      739.100000       0.139094
      739.200000       0.146529
      739.300000       0.154366
      739.400000       0.162653
      739.500000       0.171410
      739.600000       0.180657
      739.700000       0.190431
      739.800000       0.200726
      739.900000       0.211579
      740.000000       0.222997
      740.100000       0.235004
      740.200000       0.247615
      740.300000       0.260808
      740.400000       0.274615
      740.500000       0.289019
      740.600000       0.304000
      740.700000       0.319531
      740.800000       0.335591
      740.900000       0.352152
      741.000000       0.369140
      741.100000       0.386537
      741.200000       0.404280
      741.300000       0.422301
      741.400000       0.440568
      741.500000       0.459006
      741.600000       0.477537
      741.700000       0.496132
      741.800000       0.514721
      741.900000       0.533279
      742.000000       0.551720
      742.100000       0.570018
      742.200000       0.588126
      742.300000       0.605993
      742.400000       0.623618
      742.500000       0.640951
      742.600000       0.657953
      742.700000       0.674590
      742.800000       0.690796
      742.900000       0.706546
      743.000000       0.721749
      743.100000       0.736388
      743.200000       0.750432
      743.300000       0.763829
      743.400000       0.776554
      743.500000       0.788553
      743.600000       0.799813
      743.700000       0.810378
      743.800000       0.820251
      743.900000       0.829491
      744.000000       0.838110
      744.100000       0.846141
      744.200000       0.853643
      744.300000       0.860647
      744.400000       0.867204
      744.500000       0.873356
      744.600000       0.879168
      744.700000       0.884689
      744.800000       0.889957
      744.900000       0.895024
      745.000000       0.899930
      745.100000       0.904728
      745.200000       0.909436
      745.300000       0.914054
      745.400000       0.918583
      745.500000       0.923026
      745.600000       0.927372
      745.700000       0.931618
      745.800000       0.935764
      745.900000       0.939833
      746.000000       0.943820
      746.100000       0.947737
      746.200000       0.951584
      746.300000       0.955341
      746.400000       0.958984
      746.500000       0.962486
      746.600000       0.965828
      746.700000       0.969012
      746.800000       0.972029
      746.900000       0.974886
      747.000000       0.977589
      747.100000       0.980133
      747.200000       0.982529
      747.300000       0.984777
      747.400000       0.986887
      747.500000       0.988865
      747.600000       0.990716
      747.700000       0.992426
      747.800000       0.993982
      747.900000       0.995378
      748.000000       0.996601
      748.100000       0.997649
      748.200000       0.998512
      748.300000       0.999185
      748.400000       0.999659
      748.500000       0.999931
      748.600000       1.000000
      748.700000       0.999889
      748.800000       0.999615
      748.900000       0.999197
      749.000000       0.998651
      749.100000       0.997984
      749.200000       0.997209
      749.300000       0.996336
      749.400000       0.995382
      749.500000       0.994364
      749.600000       0.993290
      749.700000       0.992138
      749.800000       0.990890
      749.900000       0.989526
      750.000000       0.988015
      750.100000       0.986348
      750.200000       0.984500
      750.300000       0.982454
      750.400000       0.980196
      750.500000       0.977736
      750.600000       0.975078
      750.700000       0.972257
      750.800000       0.969304
      750.900000       0.966252
      751.000000       0.963109
      751.100000       0.959862
      751.200000       0.956494
      751.300000       0.952997
      751.400000       0.949350
      751.500000       0.945550
      751.600000       0.941595
      751.700000       0.937482
      751.800000       0.933211
      751.900000       0.928773
      752.000000       0.924155
      752.100000       0.919334
      752.200000       0.914274
      752.300000       0.908941
      752.400000       0.903285
      752.500000       0.897271
      752.600000       0.890843
      752.700000       0.883954
      752.800000       0.876553
      752.900000       0.868607
      753.000000       0.860076
      753.100000       0.850906
      753.200000       0.841051
      753.300000       0.830504
      753.400000       0.819221
      753.500000       0.807197
      753.600000       0.794416
      753.700000       0.780890
      753.800000       0.766666
      753.900000       0.751760
      754.000000       0.736216
      754.100000       0.720054
      754.200000       0.703334
      754.300000       0.686143
      754.400000       0.668501
      754.500000       0.650513
      754.600000       0.632195
      754.700000       0.613628
      754.800000       0.594886
      754.900000       0.575979
      755.000000       0.557016
      755.100000       0.538037
      755.200000       0.519095
      755.300000       0.500285
      755.400000       0.481615
      755.500000       0.463149
      755.600000       0.444943
      755.700000       0.427033
      755.800000       0.409455
      755.900000       0.392207
      756.000000       0.375356
      756.100000       0.358901
      756.200000       0.342859
      756.300000       0.327272
      756.400000       0.312118
      756.500000       0.297415
      756.600000       0.283176
      756.700000       0.269406
      756.800000       0.256112
      756.900000       0.243270
      757.000000       0.230913
      757.100000       0.219037
      757.200000       0.207620
      757.300000       0.196670
      757.400000       0.186186
      757.500000       0.176166
      757.600000       0.166613
      757.700000       0.157509
      757.800000       0.148856
      757.900000       0.140633
      758.000000       0.132849
      758.100000       0.125492
      758.200000       0.118535
      758.300000       0.111972
      758.400000       0.105786
      758.500000       0.099971
      758.600000       0.094498
      758.700000       0.089341
      758.800000       0.084493
      758.900000       0.079921
      759.000000       0.075612
      759.100000       0.071538
      759.200000       0.067673
      759.300000       0.064003
      759.400000       0.060511
      759.500000       0.057183
      759.600000       0.054004
      759.700000       0.050955
      759.800000       0.048036
      759.900000       0.045230
      760.000000       0.042533
      760.100000       0.039943
      760.200000       0.037453
      760.300000       0.035064
      760.400000       0.032778
      760.500000       0.030595
      760.600000       0.028517
      760.700000       0.026546
      760.800000       0.024692
      760.900000       0.022954
      761.000000       0.021337
      761.100000       0.019841
      761.200000       0.018469
      761.300000       0.017223
      761.400000       0.016102
      761.500000       0.015104
      761.600000       0.014226
      761.700000       0.013462
      761.800000       0.012809
      761.900000       0.012261
      762.000000       0.011809
      762.100000       0.011446
      762.200000       0.011162
      762.300000       0.010950
      762.400000       0.010799
      762.500000       0.010699
      762.600000       0.010637
      762.700000       0.010605
      762.800000       0.010592
      762.900000       0.010587
      763.000000       0.010581
      763.100000       0.010565
      763.200000       0.010529
      763.300000       0.010468
      763.400000       0.010373
      763.500000       0.010241
      763.600000       0.010066
      763.700000       0.009849
      763.800000       0.009588
      763.900000       0.009285
      764.000000       0.008943
      764.100000       0.008566
      764.200000       0.008162
      764.300000       0.007737
      764.400000       0.007301
      764.500000       0.006861
      764.600000       0.006432
      764.700000       0.006020
      764.800000       0.005638
      764.900000       0.005296
      765.000000       0.005002
      765.100000       0.004766
      765.200000       0.004593
      765.300000       0.004491
      765.400000       0.004460
      765.500000       0.004502
      765.600000       0.004615
      765.700000       0.004796
      765.800000       0.005038
      765.900000       0.005334
      766.000000       0.005672
      766.100000       0.006042
      766.200000       0.006431
      766.300000       0.006823
      766.400000       0.007206
      766.500000       0.007565
      766.600000       0.007888
      766.700000       0.008161
      766.800000       0.008375
      766.900000       0.008517
      767.000000       0.008584
      767.100000       0.008568
      767.200000       0.008467
      767.300000       0.008283
      767.400000       0.008016
      767.500000       0.007672
      767.600000       0.007257
      767.700000       0.006782
      767.800000       0.006254
      767.900000       0.005685
      768.000000       0.005087
      768.100000       0.004470
      768.200000       0.003843
      768.300000       0.003220
      768.400000       0.002608
      768.500000       0.002016
      768.600000       0.000710
      768.700000       0.000231
