3,   channel 3 SRF (incl. blur) from file SRF_SIRS-D_Ch03.asc received July 2019 from Carsten Stanfuss
Number of data points:
281
Wavenumber (cm-1)   Filter response
      727.000000       0.000000
      727.050000       0.000000
      727.100000       0.000000
      727.150000       0.000000
      727.200000       0.000000
      727.250000       0.000000
      727.300000       0.000000
      727.350000       0.000000
      727.400000       0.000000
      727.450000       0.000000
      727.500000       0.000000
      727.550000       0.000000
      727.600000       0.000000
      727.650000       0.000000
      727.700000       0.000250
      727.750000       0.001000
      727.800000       0.002250
      727.850000       0.004000
      727.900000       0.006250
      727.950000       0.009000
      728.000000       0.012250
      728.050000       0.016000
      728.100000       0.020250
      728.150000       0.025000
      728.200000       0.030250
      728.250000       0.036000
      728.300000       0.042250
      728.350000       0.049000
      728.400000       0.056250
      728.450000       0.064000
      728.500000       0.072250
      728.550000       0.081000
      728.600000       0.090250
      728.650000       0.100000
      728.700000       0.110000
      728.750000       0.120000
      728.800000       0.130000
      728.850000       0.140000
      728.900000       0.150000
      728.950000       0.160000
      729.000000       0.170000
      729.050000       0.180000
      729.100000       0.190000
      729.150000       0.200000
      729.200000       0.210000
      729.250000       0.220000
      729.300000       0.230000
      729.350000       0.240000
      729.400000       0.250000
      729.450000       0.260000
      729.500000       0.270000
      729.550000       0.280000
      729.600000       0.290000
      729.650000       0.300000
      729.700000       0.310000
      729.750000       0.320000
      729.800000       0.330000
      729.850000       0.340000
      729.900000       0.350000
      729.950000       0.360000
      730.000000       0.370000
      730.050000       0.380000
      730.100000       0.390000
      730.150000       0.400000
      730.200000       0.410000
      730.250000       0.420000
      730.300000       0.430000
      730.350000       0.440000
      730.400000       0.450000
      730.450000       0.460000
      730.500000       0.470000
      730.550000       0.480000
      730.600000       0.490000
      730.650000       0.500000
      730.700000       0.510000
      730.750000       0.520000
      730.800000       0.530000
      730.850000       0.540000
      730.900000       0.550000
      730.950000       0.560000
      731.000000       0.570000
      731.050000       0.580000
      731.100000       0.590000
      731.150000       0.600000
      731.200000       0.610000
      731.250000       0.620000
      731.300000       0.630000
      731.350000       0.640000
      731.400000       0.650000
      731.450000       0.660000
      731.500000       0.670000
      731.550000       0.680000
      731.600000       0.690000
      731.650000       0.700000
      731.700000       0.710000
      731.750000       0.720000
      731.800000       0.730000
      731.850000       0.740000
      731.900000       0.750000
      731.950000       0.760000
      732.000000       0.770000
      732.050000       0.780000
      732.100000       0.790000
      732.150000       0.800000
      732.200000       0.810000
      732.250000       0.820000
      732.300000       0.830000
      732.350000       0.840000
      732.400000       0.850000
      732.450000       0.860000
      732.500000       0.870000
      732.550000       0.880000
      732.600000       0.890000
      732.650000       0.900000
      732.700000       0.909750
      732.750000       0.919000
      732.800000       0.927750
      732.850000       0.936000
      732.900000       0.943750
      732.950000       0.951000
      733.000000       0.957750
      733.050000       0.964000
      733.100000       0.969750
      733.150000       0.975000
      733.200000       0.979750
      733.250000       0.984000
      733.300000       0.987750
      733.350000       0.991000
      733.400000       0.993750
      733.450000       0.996000
      733.500000       0.997750
      733.550000       0.999000
      733.600000       0.999750
      733.650000       1.000000
      733.700000       1.000000
      733.750000       1.000000
      733.800000       1.000000
      733.850000       1.000000
      733.900000       1.000000
      733.950000       1.000000
      734.000000       1.000000
      734.050000       1.000000
      734.100000       1.000000
      734.150000       1.000000
      734.200000       1.000000
      734.250000       1.000000
      734.300000       1.000000
      734.350000       1.000000
      734.400000       0.999750
      734.450000       0.999000
      734.500000       0.997750
      734.550000       0.996000
      734.600000       0.993750
      734.650000       0.991000
      734.700000       0.987750
      734.750000       0.984000
      734.800000       0.979750
      734.850000       0.975000
      734.900000       0.969750
      734.950000       0.964000
      735.000000       0.957750
      735.050000       0.951000
      735.100000       0.943750
      735.150000       0.936000
      735.200000       0.927750
      735.250000       0.919000
      735.300000       0.909750
      735.350000       0.900000
      735.400000       0.890000
      735.450000       0.880000
      735.500000       0.870000
      735.550000       0.860000
      735.600000       0.850000
      735.650000       0.840000
      735.700000       0.830000
      735.750000       0.820000
      735.800000       0.810000
      735.850000       0.800000
      735.900000       0.790000
      735.950000       0.780000
      736.000000       0.770000
      736.050000       0.760000
      736.100000       0.750000
      736.150000       0.740000
      736.200000       0.730000
      736.250000       0.720000
      736.300000       0.710000
      736.350000       0.700000
      736.400000       0.690000
      736.450000       0.680000
      736.500000       0.670000
      736.550000       0.660000
      736.600000       0.650000
      736.650000       0.640000
      736.700000       0.630000
      736.750000       0.620000
      736.800000       0.610000
      736.850000       0.600000
      736.900000       0.590000
      736.950000       0.580000
      737.000000       0.570000
      737.050000       0.560000
      737.100000       0.550000
      737.150000       0.540000
      737.200000       0.530000
      737.250000       0.520000
      737.300000       0.510000
      737.350000       0.500000
      737.400000       0.490000
      737.450000       0.480000
      737.500000       0.470000
      737.550000       0.460000
      737.600000       0.450000
      737.650000       0.440000
      737.700000       0.430000
      737.750000       0.420000
      737.800000       0.410000
      737.850000       0.400000
      737.900000       0.390000
      737.950000       0.380000
      738.000000       0.370000
      738.050000       0.360000
      738.100000       0.350000
      738.150000       0.340000
      738.200000       0.330000
      738.250000       0.320000
      738.300000       0.310000
      738.350000       0.300000
      738.400000       0.290000
      738.450000       0.280000
      738.500000       0.270000
      738.550000       0.260000
      738.600000       0.250000
      738.650000       0.240000
      738.700000       0.230000
      738.750000       0.220000
      738.800000       0.210000
      738.850000       0.200000
      738.900000       0.190000
      738.950000       0.180000
      739.000000       0.170000
      739.050000       0.160000
      739.100000       0.150000
      739.150000       0.140000
      739.200000       0.130000
      739.250000       0.120000
      739.300000       0.110000
      739.350000       0.100000
      739.400000       0.090250
      739.450000       0.081000
      739.500000       0.072250
      739.550000       0.064000
      739.600000       0.056250
      739.650000       0.049000
      739.700000       0.042250
      739.750000       0.036000
      739.800000       0.030250
      739.850000       0.025000
      739.900000       0.020250
      739.950000       0.016000
      740.000000       0.012250
      740.050000       0.009000
      740.100000       0.006250
      740.150000       0.004000
      740.200000       0.002250
      740.250000       0.001000
      740.300000       0.000250
      740.350000       0.000000
      740.400000       0.000000
      740.450000       0.000000
      740.500000       0.000000
      740.550000       0.000000
      740.600000       0.000000
      740.650000       0.000000
      740.700000       0.000000
      740.750000       0.000000
      740.800000       0.000000
      740.850000       0.000000
      740.900000       0.000000
      740.950000       0.000000
      741.000000       0.000000
