7,   from FY-3C_VIRR_SRF.xlsx (col L) Dr. Prof. SUN Ling (April 2019)
Number of data points:
241
Wavenumber (cm-1)   Filter response
     5837.711600       0.000128
     5841.121500       0.000092
     5844.535400       0.000158
     5847.953200       0.000034
     5851.375100       0.000014
     5854.800900       0.000056
     5858.230800       0.000206
     5861.664700       0.000138
     5865.102600       0.000114
     5868.544600       0.000157
     5871.990600       0.000119
     5875.440700       0.000145
     5878.894800       0.000156
     5882.352900       0.000101
     5885.815200       0.000180
     5889.281500       0.000120
     5892.751900       0.000207
     5896.226400       0.000124
     5899.705000       0.000204
     5903.187700       0.000051
     5906.674500       0.000191
     5910.165500       0.000200
     5913.660600       0.000057
     5917.159800       0.000187
     5920.663100       0.000129
     5924.170600       0.000194
     5927.682300       0.000091
     5931.198100       0.000191
     5934.718100       0.000242
     5938.242300       0.000070
     5941.770600       0.000078
     5945.303200       0.000178
     5948.840000       0.000218
     5952.381000       0.000130
     5955.926100       0.000090
     5959.475600       0.000266
     5963.029200       0.000089
     5966.587100       0.000208
     5970.149300       0.000074
     5973.715700       0.000159
     5977.286300       0.000135
     5980.861200       0.000060
     5984.440500       0.000075
     5988.024000       0.000179
     5991.611700       0.000053
     5995.203800       0.000208
     5998.800200       0.000042
     6002.401000       0.000139
     6006.006000       0.005649
     6009.615400       0.008115
     6013.229100       0.010570
     6016.847200       0.013740
     6020.469600       0.014090
     6024.096400       0.014780
     6027.727500       0.014790
     6031.363100       0.027090
     6035.003000       0.030980
     6038.647300       0.038000
     6042.296100       0.043660
     6045.949200       0.053850
     6049.606800       0.061940
     6053.268800       0.070800
     6056.935200       0.084600
     6060.606100       0.095550
     6064.281400       0.111100
     6067.961200       0.127800
     6071.645400       0.140800
     6075.334100       0.159100
     6079.027400       0.178600
     6082.725100       0.194400
     6086.427300       0.216000
     6090.134000       0.240000
     6093.845200       0.269900
     6097.561000       0.289600
     6101.281300       0.315000
     6105.006100       0.347700
     6108.735500       0.383800
     6112.469400       0.415200
     6116.208000       0.446400
     6119.951000       0.481900
     6123.698700       0.521800
     6127.451000       0.560200
     6131.207800       0.595700
     6134.969300       0.625800
     6138.735400       0.663000
     6142.506100       0.700000
     6146.281500       0.736600
     6150.061500       0.777400
     6153.846200       0.820400
     6157.635500       0.854200
     6161.429500       0.881300
     6165.228100       0.908500
     6169.031500       0.931900
     6172.839500       0.958100
     6176.652300       0.972900
     6180.469700       0.979500
     6184.291900       0.991600
     6188.118800       0.998600
     6191.950500       1.000000
     6195.786900       0.998000
     6199.628000       0.987300
     6203.473900       0.984700
     6207.324600       0.983000
     6211.180100       0.979800
     6215.040400       0.980700
     6218.905500       0.972600
     6222.775400       0.962500
     6226.650100       0.952400
     6230.529600       0.938200
     6234.414000       0.918300
     6238.303200       0.906400
     6242.197300       0.891400
     6246.096200       0.879900
     6250.000000       0.872700
     6253.908700       0.857600
     6257.822300       0.846100
     6261.740800       0.831600
     6265.664200       0.821000
     6269.592500       0.811100
     6273.525700       0.801300
     6277.463900       0.796400
     6281.407000       0.796100
     6285.355100       0.788000
     6289.308200       0.785700
     6293.266200       0.777900
     6297.229200       0.774200
     6301.197200       0.771600
     6305.170200       0.767500
     6309.148300       0.760600
     6313.131300       0.756600
     6317.119400       0.749100
     6321.112500       0.745000
     6325.110700       0.739200
     6329.113900       0.730600
     6333.122200       0.720500
     6337.135600       0.712400
     6341.154100       0.708100
     6345.177700       0.706000
     6349.206300       0.702300
     6353.240200       0.692500
     6357.279100       0.688400
     6361.323200       0.676600
     6365.372400       0.660700
     6369.426800       0.650600
     6373.486300       0.636400
     6377.551000       0.628600
     6381.620900       0.617700
     6385.696000       0.607600
     6389.776400       0.600300
     6393.861900       0.592000
     6397.952700       0.579000
     6402.048700       0.574600
     6406.149900       0.564800
     6410.256400       0.549800
     6414.368200       0.546100
     6418.485200       0.541100
     6422.607600       0.535700
     6426.735200       0.532800
     6430.868200       0.521800
     6435.006400       0.512600
     6439.150000       0.499000
     6443.299000       0.489200
     6447.453300       0.484500
     6451.612900       0.473900
     6455.777900       0.462000
     6459.948300       0.451300
     6464.124100       0.431100
     6468.305300       0.410300
     6472.491900       0.392400
     6476.683900       0.369600
     6480.881400       0.346200
     6485.084300       0.323100
     6489.292700       0.296600
     6493.506500       0.277800
     6497.725800       0.249200
     6501.950600       0.221600
     6506.180900       0.199400
     6510.416700       0.173700
     6514.658000       0.151300
     6518.904800       0.130900
     6523.157200       0.109800
     6527.415100       0.094620
     6531.678600       0.069560
     6535.947700       0.052810
     6540.222400       0.043540
     6544.502600       0.029940
     6548.788500       0.023120
     6553.079900       0.017060
     6557.377000       0.013110
     6561.679800       0.011360
     6565.988200       0.005366
     6570.302200       0.000039
     6574.622000       0.000008
     6578.947400       0.000081
     6583.278500       0.000200
     6587.615300       0.000063
     6591.957800       0.000213
     6596.306100       0.000176
     6600.660100       0.000206
     6605.019800       0.000152
     6609.385300       0.000088
     6613.756600       0.000226
     6618.133700       0.000168
     6622.516600       0.000101
     6626.905200       0.000077
     6631.299700       0.000100
     6635.700100       0.000008
     6640.106200       0.000171
     6644.518300       0.000217
     6648.936200       0.000154
     6653.359900       0.000260
     6657.789600       0.000140
     6662.225200       0.000106
     6666.666700       0.000132
     6671.114100       0.000097
     6675.567400       0.000167
     6680.026700       0.000093
     6684.492000       0.000228
     6688.963200       0.000246
     6693.440400       0.000147
     6697.923600       0.000070
     6702.412900       0.000260
     6706.908100       0.000276
     6711.409400       0.000219
     6715.916700       0.000092
     6720.430100       0.000047
     6724.949600       0.000041
     6729.475100       0.000214
     6734.006700       0.000041
     6738.544500       0.000188
     6743.088300       0.000097
     6747.638300       0.000092
     6752.194500       0.000212
     6756.756800       0.000115
     6761.325200       0.000180
     6765.899900       0.000055
     6770.480700       0.000116
     6775.067800       0.000247
     6779.661000       0.000175
     6784.260500       0.000087
     6788.866300       0.000153
