8,   channel 8 SRF from file SRF_SIRS-D_Ch08.asc received July 2019 from Carsten Stanfuss
Number of data points:
281
Wavenumber (cm-1)   Filter response
      661.700000       0.000000
      661.750000       0.000000
      661.800000       0.000000
      661.850000       0.000000
      661.900000       0.000000
      661.950000       0.000000
      662.000000       0.000000
      662.050000       0.000000
      662.100000       0.000000
      662.150000       0.000000
      662.200000       0.000000
      662.250000       0.000000
      662.300000       0.000000
      662.350000       0.000000
      662.400000       0.000000
      662.450000       0.000000
      662.500000       0.000000
      662.550000       0.000000
      662.600000       0.000000
      662.650000       0.000000
      662.700000       0.000000
      662.750000       0.000000
      662.800000       0.000000
      662.850000       0.000000
      662.900000       0.000000
      662.950000       0.000000
      663.000000       0.000000
      663.050000       0.000000
      663.100000       0.000000
      663.150000       0.000000
      663.200000       0.000000
      663.250000       0.000000
      663.300000       0.000000
      663.350000       0.000000
      663.400000       0.000000
      663.450000       0.000000
      663.500000       0.002000
      663.550000       0.012000
      663.600000       0.022000
      663.650000       0.032000
      663.700000       0.042000
      663.750000       0.052000
      663.800000       0.062000
      663.850000       0.072000
      663.900000       0.082000
      663.950000       0.092000
      664.000000       0.102000
      664.050000       0.112000
      664.100000       0.122000
      664.150000       0.132000
      664.200000       0.142000
      664.250000       0.152000
      664.300000       0.162000
      664.350000       0.172000
      664.400000       0.182000
      664.450000       0.192000
      664.500000       0.202000
      664.550000       0.212000
      664.600000       0.222000
      664.650000       0.232000
      664.700000       0.242000
      664.750000       0.252000
      664.800000       0.262000
      664.850000       0.272000
      664.900000       0.282000
      664.950000       0.292000
      665.000000       0.302000
      665.050000       0.312000
      665.100000       0.322000
      665.150000       0.332000
      665.200000       0.342000
      665.250000       0.352000
      665.300000       0.362000
      665.350000       0.372000
      665.400000       0.382000
      665.450000       0.392000
      665.500000       0.402000
      665.550000       0.412000
      665.600000       0.422000
      665.650000       0.432000
      665.700000       0.442000
      665.750000       0.452000
      665.800000       0.462000
      665.850000       0.472000
      665.900000       0.482000
      665.950000       0.492000
      666.000000       0.502000
      666.050000       0.512000
      666.100000       0.522000
      666.150000       0.532000
      666.200000       0.542000
      666.250000       0.552000
      666.300000       0.562000
      666.350000       0.572000
      666.400000       0.582000
      666.450000       0.592000
      666.500000       0.602000
      666.550000       0.612000
      666.600000       0.622000
      666.650000       0.632000
      666.700000       0.642000
      666.750000       0.652000
      666.800000       0.662000
      666.850000       0.672000
      666.900000       0.682000
      666.950000       0.692000
      667.000000       0.702000
      667.050000       0.712000
      667.100000       0.722000
      667.150000       0.732000
      667.200000       0.742000
      667.250000       0.752000
      667.300000       0.762000
      667.350000       0.772000
      667.400000       0.782000
      667.450000       0.792000
      667.500000       0.802000
      667.550000       0.812000
      667.600000       0.822000
      667.650000       0.832000
      667.700000       0.842000
      667.750000       0.852000
      667.800000       0.862000
      667.850000       0.872000
      667.900000       0.882000
      667.950000       0.892000
      668.000000       0.902000
      668.050000       0.912000
      668.100000       0.922000
      668.150000       0.932000
      668.200000       0.942000
      668.250000       0.952000
      668.300000       0.962000
      668.350000       0.972000
      668.400000       0.982000
      668.450000       0.992000
      668.500000       1.000000
      668.550000       1.000000
      668.600000       1.000000
      668.650000       1.000000
      668.700000       1.000000
      668.750000       1.000000
      668.800000       1.000000
      668.850000       1.000000
      668.900000       1.000000
      668.950000       0.992000
      669.000000       0.982000
      669.050000       0.972000
      669.100000       0.962000
      669.150000       0.952000
      669.200000       0.942000
      669.250000       0.932000
      669.300000       0.922000
      669.350000       0.912000
      669.400000       0.902000
      669.450000       0.892000
      669.500000       0.882000
      669.550000       0.872000
      669.600000       0.862000
      669.650000       0.852000
      669.700000       0.842000
      669.750000       0.832000
      669.800000       0.822000
      669.850000       0.812000
      669.900000       0.802000
      669.950000       0.792000
      670.000000       0.782000
      670.050000       0.772000
      670.100000       0.762000
      670.150000       0.752000
      670.200000       0.742000
      670.250000       0.732000
      670.300000       0.722000
      670.350000       0.712000
      670.400000       0.702000
      670.450000       0.692000
      670.500000       0.682000
      670.550000       0.672000
      670.600000       0.662000
      670.650000       0.652000
      670.700000       0.642000
      670.750000       0.632000
      670.800000       0.622000
      670.850000       0.612000
      670.900000       0.602000
      670.950000       0.592000
      671.000000       0.582000
      671.050000       0.572000
      671.100000       0.562000
      671.150000       0.552000
      671.200000       0.542000
      671.250000       0.532000
      671.300000       0.522000
      671.350000       0.512000
      671.400000       0.502000
      671.450000       0.492000
      671.500000       0.482000
      671.550000       0.472000
      671.600000       0.462000
      671.650000       0.452000
      671.700000       0.442000
      671.750000       0.432000
      671.800000       0.422000
      671.850000       0.412000
      671.900000       0.402000
      671.950000       0.392000
      672.000000       0.382000
      672.050000       0.372000
      672.100000       0.362000
      672.150000       0.352000
      672.200000       0.342000
      672.250000       0.332000
      672.300000       0.322000
      672.350000       0.312000
      672.400000       0.302000
      672.450000       0.292000
      672.500000       0.282000
      672.550000       0.272000
      672.600000       0.262000
      672.650000       0.252000
      672.700000       0.242000
      672.750000       0.232000
      672.800000       0.222000
      672.850000       0.212000
      672.900000       0.202000
      672.950000       0.192000
      673.000000       0.182000
      673.050000       0.172000
      673.100000       0.162000
      673.150000       0.152000
      673.200000       0.142000
      673.250000       0.132000
      673.300000       0.122000
      673.350000       0.112000
      673.400000       0.102000
      673.450000       0.092000
      673.500000       0.082000
      673.550000       0.072000
      673.600000       0.062000
      673.650000       0.052000
      673.700000       0.042000
      673.750000       0.032000
      673.800000       0.022000
      673.850000       0.012000
      673.900000       0.002000
      673.950000       0.000000
      674.000000       0.000000
      674.050000       0.000000
      674.100000       0.000000
      674.150000       0.000000
      674.200000       0.000000
      674.250000       0.000000
      674.300000       0.000000
      674.350000       0.000000
      674.400000       0.000000
      674.450000       0.000000
      674.500000       0.000000
      674.550000       0.000000
      674.600000       0.000000
      674.650000       0.000000
      674.700000       0.000000
      674.750000       0.000000
      674.800000       0.000000
      674.850000       0.000000
      674.900000       0.000000
      674.950000       0.000000
      675.000000       0.000000
      675.050000       0.000000
      675.100000       0.000000
      675.150000       0.000000
      675.200000       0.000000
      675.250000       0.000000
      675.300000       0.000000
      675.350000       0.000000
      675.400000       0.000000
      675.450000       0.000000
      675.500000       0.000000
      675.550000       0.000000
      675.600000       0.000000
      675.650000       0.000000
      675.700000       0.000000
