8,   channel 8 SRF (incl. blur) from file SRF_SIRS-A_Ch08.asc received July 2020 from Andrzej Kloneki
Number of data points:
281
Wavenumber (cm-1)   Filter response
      662.300000       0.000000
      662.350000       0.000000
      662.400000       0.000000
      662.450000       0.000000
      662.500000       0.000000
      662.550000       0.000000
      662.600000       0.000000
      662.650000       0.000000
      662.700000       0.000000
      662.750000       0.000000
      662.800000       0.000000
      662.850000       0.000000
      662.900000       0.000000
      662.950000       0.000000
      663.000000       0.000000
      663.050000       0.000000
      663.100000       0.000000
      663.150000       0.000000
      663.200000       0.000000
      663.250000       0.000000
      663.300000       0.000000
      663.350000       0.000000
      663.400000       0.000000
      663.450000       0.000000
      663.500000       0.000000
      663.550000       0.000000
      663.600000       0.000000
      663.650000       0.000000
      663.700000       0.000000
      663.750000       0.000000
      663.800000       0.000001
      663.850000       0.000199
      663.900000       0.000739
      663.950000       0.001620
      664.000000       0.002842
      664.050000       0.004407
      664.100000       0.006312
      664.150000       0.008559
      664.200000       0.011148
      664.250000       0.014078
      664.300000       0.017350
      664.350000       0.020963
      664.400000       0.024918
      664.450000       0.029214
      664.500000       0.033852
      664.550000       0.038831
      664.600000       0.044152
      664.650000       0.049814
      664.700000       0.055818
      664.750000       0.062163
      664.800000       0.068850
      664.850000       0.075878
      664.900000       0.083248
      664.950000       0.090959
      665.000000       0.099012
      665.050000       0.107407
      665.100000       0.116143
      665.150000       0.125220
      665.200000       0.134639
      665.250000       0.144399
      665.300000       0.154501
      665.350000       0.164945
      665.400000       0.175730
      665.450000       0.186856
      665.500000       0.198324
      665.550000       0.210134
      665.600000       0.222283
      665.650000       0.234578
      665.700000       0.246872
      665.750000       0.259167
      665.800000       0.271461
      665.850000       0.283756
      665.900000       0.296050
      665.950000       0.308344
      666.000000       0.320639
      666.050000       0.332933
      666.100000       0.345228
      666.150000       0.357522
      666.200000       0.369817
      666.250000       0.382111
      666.300000       0.394406
      666.350000       0.406700
      666.400000       0.418994
      666.450000       0.431289
      666.500000       0.443583
      666.550000       0.455878
      666.600000       0.468172
      666.650000       0.480467
      666.700000       0.492761
      666.750000       0.505055
      666.800000       0.517350
      666.850000       0.529644
      666.900000       0.541939
      666.950000       0.554233
      667.000000       0.566528
      667.050000       0.578822
      667.100000       0.591117
      667.150000       0.603411
      667.200000       0.615705
      667.250000       0.628000
      667.300000       0.640294
      667.350000       0.652589
      667.400000       0.664883
      667.450000       0.677178
      667.500000       0.689472
      667.550000       0.701766
      667.600000       0.714061
      667.650000       0.726355
      667.700000       0.738650
      667.750000       0.750944
      667.800000       0.763239
      667.850000       0.775533
      667.900000       0.787828
      667.950000       0.800122
      668.000000       0.812416
      668.050000       0.824566
      668.100000       0.836376
      668.150000       0.847844
      668.200000       0.858970
      668.250000       0.869755
      668.300000       0.880199
      668.350000       0.890301
      668.400000       0.900061
      668.450000       0.909480
      668.500000       0.918557
      668.550000       0.927293
      668.600000       0.935688
      668.650000       0.943740
      668.700000       0.951452
      668.750000       0.958822
      668.800000       0.965849
      668.850000       0.972338
      668.900000       0.978143
      668.950000       0.983266
      669.000000       0.987706
      669.050000       0.991462
      669.100000       0.994536
      669.150000       0.996926
      669.200000       0.998634
      669.250000       0.999658
      669.300000       1.000000
      669.350000       0.999658
      669.400000       0.998634
      669.450000       0.996926
      669.500000       0.994536
      669.550000       0.991462
      669.600000       0.987706
      669.650000       0.983266
      669.700000       0.978143
      669.750000       0.972338
      669.800000       0.965849
      669.850000       0.958822
      669.900000       0.951452
      669.950000       0.943740
      670.000000       0.935688
      670.050000       0.927293
      670.100000       0.918557
      670.150000       0.909480
      670.200000       0.900061
      670.250000       0.890301
      670.300000       0.880199
      670.350000       0.869755
      670.400000       0.858970
      670.450000       0.847844
      670.500000       0.836376
      670.550000       0.824566
      670.600000       0.812416
      670.650000       0.800122
      670.700000       0.787828
      670.750000       0.775533
      670.800000       0.763239
      670.850000       0.750944
      670.900000       0.738650
      670.950000       0.726355
      671.000000       0.714061
      671.050000       0.701766
      671.100000       0.689472
      671.150000       0.677178
      671.200000       0.664883
      671.250000       0.652589
      671.300000       0.640294
      671.350000       0.628000
      671.400000       0.615705
      671.450000       0.603411
      671.500000       0.591117
      671.550000       0.578822
      671.600000       0.566528
      671.650000       0.554233
      671.700000       0.541939
      671.750000       0.529644
      671.800000       0.517350
      671.850000       0.505055
      671.900000       0.492761
      671.950000       0.480467
      672.000000       0.468172
      672.050000       0.455878
      672.100000       0.443583
      672.150000       0.431289
      672.200000       0.418994
      672.250000       0.406700
      672.300000       0.394406
      672.350000       0.382111
      672.400000       0.369817
      672.450000       0.357522
      672.500000       0.345228
      672.550000       0.332933
      672.600000       0.320639
      672.650000       0.308344
      672.700000       0.296050
      672.750000       0.283756
      672.800000       0.271461
      672.850000       0.259167
      672.900000       0.246872
      672.950000       0.234578
      673.000000       0.222283
      673.050000       0.210134
      673.100000       0.198324
      673.150000       0.186856
      673.200000       0.175730
      673.250000       0.164945
      673.300000       0.154501
      673.350000       0.144399
      673.400000       0.134639
      673.450000       0.125220
      673.500000       0.116143
      673.550000       0.107407
      673.600000       0.099012
      673.650000       0.090959
      673.700000       0.083248
      673.750000       0.075878
      673.800000       0.068850
      673.850000       0.062163
      673.900000       0.055818
      673.950000       0.049814
      674.000000       0.044152
      674.050000       0.038831
      674.100000       0.033852
      674.150000       0.029214
      674.200000       0.024918
      674.250000       0.020963
      674.300000       0.017350
      674.350000       0.014078
      674.400000       0.011148
      674.450000       0.008559
      674.500000       0.006312
      674.550000       0.004407
      674.600000       0.002842
      674.650000       0.001620
      674.700000       0.000739
      674.750000       0.000199
      674.800000       0.000001
      674.850000       0.000000
      674.900000       0.000000
      674.950000       0.000000
      675.000000       0.000000
      675.050000       0.000000
      675.100000       0.000000
      675.150000       0.000000
      675.200000       0.000000
      675.250000       0.000000
      675.300000       0.000000
      675.350000       0.000000
      675.400000       0.000000
      675.450000       0.000000
      675.500000       0.000000
      675.550000       0.000000
      675.600000       0.000000
      675.650000       0.000000
      675.700000       0.000000
      675.750000       0.000000
      675.800000       0.000000
      675.850000       0.000000
      675.900000       0.000000
      675.950000       0.000000
      676.000000       0.000000
      676.050000       0.000000
      676.100000       0.000000
      676.150000       0.000000
      676.200000       0.000000
      676.250000       0.000000
      676.300000       0.000000
