10 , goes_12_sounder_10.flt
Number of data points:
1493
Wavenumber (cm-1)   Filter response
     1274.600000       0.001012
     1274.700000       0.001049
     1274.800000       0.001074
     1274.900000       0.001098
     1275.000000       0.001135
     1275.100000       0.001160
     1275.200000       0.001185
     1275.300000       0.001222
     1275.400000       0.001247
     1275.500000       0.001272
     1275.600000       0.001297
     1275.700000       0.001336
     1275.800000       0.001361
     1275.900000       0.001374
     1276.000000       0.001400
     1276.100000       0.001426
     1276.200000       0.001439
     1276.300000       0.001466
     1276.400000       0.001492
     1276.500000       0.001518
     1276.600000       0.001544
     1276.700000       0.001558
     1276.800000       0.001585
     1276.900000       0.001611
     1277.000000       0.001625
     1277.100000       0.001638
     1277.200000       0.001665
     1277.300000       0.001692
     1277.400000       0.001706
     1277.500000       0.001720
     1277.600000       0.001733
     1277.700000       0.001747
     1277.800000       0.001761
     1277.900000       0.001776
     1278.000000       0.001790
     1278.100000       0.001804
     1278.200000       0.001818
     1278.300000       0.001819
     1278.400000       0.001834
     1278.500000       0.001848
     1278.600000       0.001862
     1278.700000       0.001889
     1278.800000       0.001903
     1278.900000       0.001917
     1279.000000       0.001944
     1279.100000       0.001984
     1279.200000       0.002024
     1279.300000       0.002064
     1279.400000       0.002104
     1279.500000       0.002157
     1279.600000       0.002210
     1279.700000       0.002276
     1279.800000       0.002355
     1279.900000       0.002434
     1280.000000       0.002513
     1280.100000       0.002593
     1280.200000       0.002685
     1280.300000       0.002778
     1280.400000       0.002870
     1280.500000       0.002950
     1280.600000       0.003043
     1280.700000       0.003137
     1280.800000       0.003243
     1280.900000       0.003335
     1281.000000       0.003429
     1281.100000       0.003509
     1281.200000       0.003602
     1281.300000       0.003682
     1281.400000       0.003761
     1281.500000       0.003828
     1281.600000       0.003894
     1281.700000       0.003961
     1281.800000       0.004014
     1281.900000       0.004068
     1282.000000       0.004109
     1282.100000       0.004162
     1282.200000       0.004203
     1282.300000       0.004244
     1282.400000       0.004285
     1282.500000       0.004327
     1282.600000       0.004369
     1282.700000       0.004411
     1282.800000       0.004466
     1282.900000       0.004508
     1283.000000       0.004577
     1283.100000       0.004632
     1283.200000       0.004714
     1283.300000       0.004808
     1283.400000       0.004891
     1283.500000       0.004972
     1283.600000       0.005094
     1283.700000       0.005215
     1283.800000       0.005310
     1283.900000       0.005418
     1284.000000       0.005538
     1284.100000       0.005659
     1284.200000       0.005766
     1284.300000       0.005886
     1284.400000       0.005993
     1284.500000       0.006099
     1284.600000       0.006219
     1284.700000       0.006338
     1284.800000       0.006445
     1284.900000       0.006550
     1285.000000       0.006656
     1285.100000       0.006762
     1285.200000       0.006855
     1285.300000       0.006948
     1285.400000       0.007042
     1285.500000       0.007135
     1285.600000       0.007217
     1285.700000       0.007284
     1285.800000       0.007353
     1285.900000       0.007395
     1286.000000       0.007438
     1286.100000       0.007481
     1286.200000       0.007511
     1286.300000       0.007541
     1286.400000       0.007571
     1286.500000       0.007600
     1286.600000       0.007629
     1286.700000       0.007645
     1286.800000       0.007646
     1286.900000       0.007661
     1287.000000       0.007674
     1287.100000       0.007687
     1287.200000       0.007700
     1287.300000       0.007700
     1287.400000       0.007712
     1287.500000       0.007724
     1287.600000       0.007737
     1287.700000       0.007749
     1287.800000       0.007749
     1287.900000       0.007775
     1288.000000       0.007788
     1288.100000       0.007815
     1288.200000       0.007828
     1288.300000       0.007854
     1288.400000       0.007867
     1288.500000       0.007893
     1288.600000       0.007919
     1288.700000       0.007944
     1288.800000       0.007969
     1288.900000       0.007994
     1289.000000       0.008033
     1289.100000       0.008071
     1289.200000       0.008096
     1289.300000       0.008134
     1289.400000       0.008187
     1289.500000       0.008226
     1289.600000       0.008278
     1289.700000       0.008332
     1289.800000       0.008399
     1289.900000       0.008467
     1290.000000       0.008548
     1290.100000       0.008643
     1290.200000       0.008738
     1290.300000       0.008846
     1290.400000       0.008982
     1290.500000       0.009117
     1290.600000       0.009279
     1290.700000       0.009469
     1290.800000       0.009658
     1290.900000       0.009861
     1291.000000       0.010064
     1291.100000       0.010281
     1291.200000       0.010498
     1291.300000       0.010702
     1291.400000       0.010919
     1291.500000       0.011137
     1291.600000       0.011341
     1291.700000       0.011559
     1291.800000       0.011777
     1291.900000       0.011955
     1292.000000       0.012106
     1292.100000       0.012258
     1292.200000       0.012369
     1292.300000       0.012453
     1292.400000       0.012524
     1292.500000       0.012569
     1292.600000       0.012599
     1292.700000       0.012616
     1292.800000       0.012632
     1292.900000       0.012635
     1293.000000       0.012638
     1293.100000       0.012640
     1293.200000       0.012644
     1293.300000       0.012660
     1293.400000       0.012689
     1293.500000       0.012733
     1293.600000       0.012789
     1293.700000       0.012858
     1293.800000       0.012953
     1293.900000       0.013088
     1294.000000       0.013248
     1294.100000       0.013393
     1294.200000       0.013549
     1294.300000       0.013785
     1294.400000       0.014032
     1294.500000       0.014264
     1294.600000       0.014495
     1294.700000       0.014724
     1294.800000       0.014926
     1294.900000       0.015194
     1295.000000       0.015502
     1295.100000       0.015769
     1295.200000       0.015969
     1295.300000       0.016169
     1295.400000       0.016436
     1295.500000       0.016741
     1295.600000       0.016994
     1295.700000       0.017206
     1295.800000       0.017496
     1295.900000       0.017786
     1296.000000       0.017995
     1296.100000       0.018243
     1296.200000       0.018557
     1296.300000       0.018778
     1296.400000       0.018998
     1296.500000       0.019298
     1296.600000       0.019571
     1296.700000       0.019778
     1296.800000       0.019985
     1296.900000       0.020206
     1297.000000       0.020400
     1297.100000       0.020660
     1297.200000       0.020985
     1297.300000       0.021244
     1297.400000       0.021437
     1297.500000       0.021565
     1297.600000       0.021717
     1297.700000       0.021935
     1297.800000       0.022177
     1297.900000       0.022380
     1298.000000       0.022504
     1298.100000       0.022654
     1298.200000       0.022882
     1298.300000       0.023046
     1298.400000       0.023172
     1298.500000       0.023362
     1298.600000       0.023593
     1298.700000       0.023811
     1298.800000       0.024018
     1298.900000       0.024224
     1299.000000       0.024495
     1299.100000       0.024793
     1299.200000       0.025012
     1299.300000       0.025231
     1299.400000       0.025513
     1299.500000       0.025860
     1299.600000       0.026232
     1299.700000       0.026603
     1299.800000       0.026962
     1299.900000       0.027346
     1300.000000       0.027771
     1300.100000       0.028222
     1300.200000       0.028584
     1300.300000       0.028975
     1300.400000       0.029419
     1300.500000       0.029865
     1300.600000       0.030325
     1300.700000       0.030827
     1300.800000       0.031368
     1300.900000       0.031909
     1301.000000       0.032426
     1301.100000       0.032955
     1301.200000       0.033537
     1301.300000       0.034157
     1301.400000       0.034764
     1301.500000       0.035373
     1301.600000       0.035970
     1301.700000       0.036632
     1301.800000       0.037336
     1301.900000       0.038029
     1302.000000       0.038712
     1302.100000       0.039411
     1302.200000       0.040152
     1302.300000       0.040934
     1302.400000       0.041719
     1302.500000       0.042504
     1302.600000       0.043277
     1302.700000       0.044086
     1302.800000       0.044918
     1302.900000       0.045669
     1303.000000       0.046323
     1303.100000       0.046932
     1303.200000       0.047532
     1303.300000       0.048137
     1303.400000       0.048666
     1303.500000       0.049145
     1303.600000       0.049623
     1303.700000       0.050088
     1303.800000       0.050554
     1303.900000       0.050999
     1304.000000       0.051437
     1304.100000       0.051856
     1304.200000       0.052305
     1304.300000       0.052795
     1304.400000       0.053273
     1304.500000       0.053738
     1304.600000       0.054252
     1304.700000       0.054761
     1304.800000       0.055254
     1304.900000       0.055752
     1305.000000       0.056280
     1305.100000       0.056833
     1305.200000       0.057434
     1305.300000       0.058140
     1305.400000       0.058899
     1305.500000       0.059664
     1305.600000       0.060444
     1305.700000       0.061251
     1305.800000       0.062123
     1305.900000       0.063058
     1306.000000       0.064032
     1306.100000       0.065118
     1306.200000       0.066305
     1306.300000       0.067545
     1306.400000       0.068814
     1306.500000       0.070090
     1306.600000       0.071434
     1306.700000       0.072849
     1306.800000       0.074237
     1306.900000       0.075576
     1307.000000       0.076899
     1307.100000       0.078241
     1307.200000       0.079610
     1307.300000       0.080915
     1307.400000       0.082211
     1307.500000       0.083565
     1307.600000       0.084935
     1307.700000       0.086281
     1307.800000       0.087619
     1307.900000       0.088948
     1308.000000       0.090283
     1308.100000       0.091774
     1308.200000       0.093484
     1308.300000       0.095144
     1308.400000       0.096731
     1308.500000       0.098443
     1308.600000       0.100245
     1308.700000       0.102073
     1308.800000       0.103912
     1308.900000       0.105737
     1309.000000       0.107546
     1309.100000       0.109387
     1309.200000       0.111272
     1309.300000       0.113135
     1309.400000       0.115002
     1309.500000       0.116947
     1309.600000       0.118972
     1309.700000       0.121004
     1309.800000       0.123131
     1309.900000       0.125390
     1310.000000       0.127673
     1310.100000       0.129980
     1310.200000       0.132349
     1310.300000       0.134781
     1310.400000       0.137253
     1310.500000       0.139812
     1310.600000       0.142436
     1310.700000       0.145060
     1310.800000       0.147935
     1310.900000       0.151273
     1311.000000       0.154601
     1311.100000       0.157767
     1311.200000       0.161033
     1311.300000       0.164348
     1311.400000       0.167474
     1311.500000       0.170360
     1311.600000       0.173019
     1311.700000       0.175624
     1311.800000       0.178347
     1311.900000       0.181366
     1312.000000       0.184892
     1312.100000       0.189001
     1312.200000       0.193433
     1312.300000       0.197839
     1312.400000       0.201744
     1312.500000       0.204976
     1312.600000       0.207535
     1312.700000       0.209832
     1312.800000       0.212190
     1312.900000       0.214933
     1313.000000       0.218431
     1313.100000       0.222999
     1313.200000       0.228336
     1313.300000       0.233858
     1313.400000       0.238669
     1313.500000       0.243255
     1313.600000       0.248577
     1313.700000       0.254174
     1313.800000       0.259711
     1313.900000       0.265315
     1314.000000       0.270946
     1314.100000       0.276527
     1314.200000       0.282145
     1314.300000       0.287849
     1314.400000       0.293561
     1314.500000       0.299155
     1314.600000       0.304494
     1314.700000       0.309474
     1314.800000       0.313933
     1314.900000       0.317634
     1315.000000       0.320911
     1315.100000       0.324722
     1315.200000       0.330020
     1315.300000       0.337351
     1315.400000       0.345417
     1315.500000       0.352208
     1315.600000       0.355194
     1315.700000       0.357209
     1315.800000       0.363435
     1315.900000       0.375271
     1316.000000       0.390794
     1316.100000       0.402722
     1316.200000       0.407993
     1316.300000       0.407401
     1316.400000       0.408343
     1316.500000       0.416469
     1316.600000       0.430950
     1316.700000       0.449133
     1316.800000       0.466967
     1316.900000       0.478797
     1317.000000       0.482255
     1317.100000       0.484726
     1317.200000       0.490588
     1317.300000       0.500341
     1317.400000       0.510167
     1317.500000       0.516455
     1317.600000       0.521677
     1317.700000       0.527637
     1317.800000       0.534065
     1317.900000       0.539767
     1318.000000       0.543732
     1318.100000       0.548022
     1318.200000       0.554976
     1318.300000       0.566137
     1318.400000       0.576747
     1318.500000       0.579566
     1318.600000       0.582127
     1318.700000       0.591268
     1318.800000       0.602178
     1318.900000       0.613665
     1319.000000       0.628047
     1319.100000       0.636543
     1319.200000       0.633577
     1319.300000       0.633273
     1319.400000       0.642804
     1319.500000       0.660459
     1319.600000       0.676880
     1319.700000       0.684192
     1319.800000       0.690588
     1319.900000       0.701005
     1320.000000       0.713694
     1320.100000       0.728436
     1320.200000       0.745127
     1320.300000       0.758484
     1320.400000       0.765166
     1320.500000       0.767554
     1320.600000       0.769081
     1320.700000       0.773466
     1320.800000       0.780952
     1320.900000       0.790495
     1321.000000       0.799947
     1321.100000       0.807955
     1321.200000       0.814015
     1321.300000       0.819321
     1321.400000       0.825231
     1321.500000       0.831810
     1321.600000       0.839793
     1321.700000       0.851052
     1321.800000       0.863798
     1321.900000       0.874723
     1322.000000       0.882679
     1322.100000       0.888027
     1322.200000       0.892771
     1322.300000       0.897715
     1322.400000       0.902956
     1322.500000       0.908243
     1322.600000       0.913245
     1322.700000       0.917828
     1322.800000       0.922352
     1322.900000       0.927524
     1323.000000       0.933321
     1323.100000       0.938717
     1323.200000       0.940877
     1323.300000       0.940412
     1323.400000       0.942066
     1323.500000       0.944963
     1323.600000       0.943782
     1323.700000       0.944378
     1323.800000       0.947310
     1323.900000       0.952205
     1324.000000       0.957318
     1324.100000       0.960929
     1324.200000       0.965517
     1324.300000       0.973870
     1324.400000       0.983483
     1324.500000       0.991471
     1324.600000       0.996928
     1324.700000       0.999680
     1324.800000       1.000000
     1324.900000       0.998644
     1325.000000       0.994307
     1325.100000       0.990588
     1325.200000       0.988175
     1325.300000       0.986977
     1325.400000       0.986593
     1325.500000       0.986701
     1325.600000       0.987040
     1325.700000       0.987347
     1325.800000       0.987368
     1325.900000       0.986914
     1326.000000       0.985911
     1326.100000       0.984497
     1326.200000       0.982797
     1326.300000       0.980912
     1326.400000       0.978922
     1326.500000       0.976875
     1326.600000       0.974846
     1326.700000       0.972849
     1326.800000       0.970867
     1326.900000       0.968874
     1327.000000       0.966814
     1327.100000       0.964676
     1327.200000       0.962369
     1327.300000       0.959764
     1327.400000       0.956946
     1327.500000       0.953964
     1327.600000       0.950638
     1327.700000       0.946885
     1327.800000       0.942780
     1327.900000       0.938495
     1328.000000       0.934225
     1328.100000       0.930167
     1328.200000       0.926461
     1328.300000       0.923168
     1328.400000       0.920192
     1328.500000       0.917395
     1328.600000       0.914631
     1328.700000       0.911797
     1328.800000       0.908758
     1328.900000       0.905399
     1329.000000       0.901589
     1329.100000       0.897070
     1329.200000       0.891927
     1329.300000       0.887085
     1329.400000       0.883067
     1329.500000       0.879822
     1329.600000       0.876938
     1329.700000       0.873962
     1329.800000       0.870847
     1329.900000       0.867534
     1330.000000       0.863831
     1330.100000       0.860026
     1330.200000       0.856486
     1330.300000       0.853062
     1330.400000       0.849633
     1330.500000       0.846267
     1330.600000       0.842983
     1330.700000       0.839795
     1330.800000       0.836719
     1330.900000       0.833775
     1331.000000       0.830946
     1331.100000       0.828223
     1331.200000       0.825576
     1331.300000       0.823003
     1331.400000       0.820489
     1331.500000       0.818016
     1331.600000       0.815599
     1331.700000       0.813244
     1331.800000       0.810941
     1331.900000       0.808687
     1332.000000       0.806465
     1332.100000       0.804239
     1332.200000       0.802014
     1332.300000       0.799756
     1332.400000       0.797459
     1332.500000       0.795130
     1332.600000       0.792736
     1332.700000       0.790173
     1332.800000       0.787585
     1332.900000       0.785159
     1333.000000       0.782872
     1333.100000       0.780707
     1333.200000       0.778721
     1333.300000       0.776935
     1333.400000       0.775405
     1333.500000       0.774138
     1333.600000       0.773127
     1333.700000       0.772317
     1333.800000       0.771656
     1333.900000       0.771127
     1334.000000       0.770661
     1334.100000       0.770246
     1334.200000       0.769835
     1334.300000       0.769390
     1334.400000       0.768871
     1334.500000       0.768300
     1334.600000       0.767686
     1334.700000       0.767067
     1334.800000       0.766461
     1334.900000       0.765910
     1335.000000       0.765444
     1335.100000       0.765080
     1335.200000       0.764841
     1335.300000       0.764760
     1335.400000       0.764798
     1335.500000       0.764920
     1335.600000       0.765102
     1335.700000       0.765277
     1335.800000       0.765403
     1335.900000       0.765442
     1336.000000       0.765370
     1336.100000       0.765142
     1336.200000       0.764751
     1336.300000       0.764203
     1336.400000       0.763575
     1336.500000       0.762907
     1336.600000       0.762281
     1336.700000       0.761746
     1336.800000       0.761347
     1336.900000       0.761137
     1337.000000       0.761158
     1337.100000       0.761374
     1337.200000       0.761766
     1337.300000       0.762277
     1337.400000       0.762862
     1337.500000       0.763486
     1337.600000       0.764146
     1337.700000       0.764850
     1337.800000       0.765639
     1337.900000       0.766513
     1338.000000       0.767502
     1338.100000       0.768704
     1338.200000       0.770103
     1338.300000       0.771528
     1338.400000       0.772899
     1338.500000       0.774224
     1338.600000       0.775416
     1338.700000       0.776407
     1338.800000       0.777186
     1338.900000       0.777740
     1339.000000       0.778136
     1339.100000       0.778409
     1339.200000       0.778632
     1339.300000       0.778830
     1339.400000       0.779080
     1339.500000       0.779410
     1339.600000       0.779870
     1339.700000       0.780506
     1339.800000       0.781369
     1339.900000       0.782460
     1340.000000       0.783757
     1340.100000       0.785244
     1340.200000       0.786907
     1340.300000       0.788746
     1340.400000       0.790727
     1340.500000       0.792864
     1340.600000       0.795092
     1340.700000       0.797376
     1340.800000       0.799805
     1340.900000       0.802356
     1341.000000       0.804795
     1341.100000       0.807141
     1341.200000       0.809522
     1341.300000       0.811966
     1341.400000       0.814493
     1341.500000       0.817132
     1341.600000       0.819932
     1341.700000       0.822937
     1341.800000       0.826050
     1341.900000       0.829130
     1342.000000       0.832033
     1342.100000       0.834703
     1342.200000       0.837152
     1342.300000       0.839401
     1342.400000       0.841449
     1342.500000       0.843317
     1342.600000       0.845029
     1342.700000       0.846586
     1342.800000       0.847994
     1342.900000       0.849306
     1343.000000       0.850529
     1343.100000       0.851702
     1343.200000       0.852850
     1343.300000       0.853992
     1343.400000       0.855175
     1343.500000       0.856363
     1343.600000       0.857568
     1343.700000       0.858915
     1343.800000       0.860353
     1343.900000       0.861676
     1344.000000       0.862920
     1344.100000       0.864152
     1344.200000       0.865324
     1344.300000       0.866442
     1344.400000       0.867465
     1344.500000       0.868334
     1344.600000       0.869025
     1344.700000       0.869559
     1344.800000       0.869973
     1344.900000       0.870303
     1345.000000       0.870575
     1345.100000       0.870840
     1345.200000       0.871095
     1345.300000       0.871361
     1345.400000       0.871583
     1345.500000       0.871733
     1345.600000       0.871800
     1345.700000       0.871760
     1345.800000       0.871633
     1345.900000       0.871438
     1346.000000       0.871216
     1346.100000       0.870948
     1346.200000       0.870749
     1346.300000       0.870650
     1346.400000       0.870527
     1346.500000       0.870358
     1346.600000       0.870217
     1346.700000       0.870114
     1346.800000       0.870040
     1346.900000       0.869973
     1347.000000       0.869937
     1347.100000       0.869922
     1347.200000       0.869973
     1347.300000       0.870110
     1347.400000       0.870363
     1347.500000       0.870777
     1347.600000       0.871373
     1347.700000       0.872179
     1347.800000       0.873266
     1347.900000       0.874611
     1348.000000       0.876220
     1348.100000       0.878041
     1348.200000       0.880009
     1348.300000       0.882047
     1348.400000       0.884116
     1348.500000       0.886160
     1348.600000       0.888213
     1348.700000       0.890271
     1348.800000       0.892391
     1348.900000       0.894586
     1349.000000       0.896922
     1349.100000       0.899478
     1349.200000       0.902316
     1349.300000       0.905419
     1349.400000       0.908842
     1349.500000       0.912645
     1349.600000       0.916707
     1349.700000       0.920867
     1349.800000       0.924961
     1349.900000       0.928809
     1350.000000       0.932355
     1350.100000       0.935608
     1350.200000       0.938567
     1350.300000       0.941236
     1350.400000       0.943624
     1350.500000       0.945722
     1350.600000       0.947531
     1350.700000       0.949071
     1350.800000       0.950346
     1350.900000       0.951372
     1351.000000       0.952197
     1351.100000       0.952840
     1351.200000       0.953330
     1351.300000       0.953703
     1351.400000       0.954003
     1351.500000       0.954254
     1351.600000       0.954472
     1351.700000       0.954662
     1351.800000       0.954844
     1351.900000       0.955050
     1352.000000       0.955222
     1352.100000       0.955351
     1352.200000       0.955457
     1352.300000       0.955544
     1352.400000       0.955611
     1352.500000       0.955635
     1352.600000       0.955646
     1352.700000       0.955620
     1352.800000       0.955567
     1352.900000       0.955501
     1353.000000       0.955407
     1353.100000       0.955314
     1353.200000       0.955216
     1353.300000       0.955134
     1353.400000       0.955061
     1353.500000       0.955002
     1353.600000       0.954967
     1353.700000       0.954945
     1353.800000       0.954943
     1353.900000       0.954930
     1354.000000       0.954915
     1354.100000       0.954880
     1354.200000       0.954808
     1354.300000       0.954678
     1354.400000       0.954491
     1354.500000       0.954251
     1354.600000       0.953961
     1354.700000       0.953596
     1354.800000       0.953153
     1354.900000       0.952651
     1355.000000       0.952106
     1355.100000       0.951518
     1355.200000       0.950892
     1355.300000       0.950234
     1355.400000       0.949566
     1355.500000       0.948867
     1355.600000       0.948172
     1355.700000       0.947456
     1355.800000       0.946735
     1355.900000       0.946018
     1356.000000       0.945315
     1356.100000       0.944621
     1356.200000       0.943947
     1356.300000       0.943304
     1356.400000       0.942702
     1356.500000       0.942131
     1356.600000       0.941603
     1356.700000       0.941114
     1356.800000       0.940657
     1356.900000       0.940242
     1357.000000       0.939855
     1357.100000       0.939511
     1357.200000       0.939195
     1357.300000       0.938850
     1357.400000       0.938507
     1357.500000       0.938181
     1357.600000       0.937813
     1357.700000       0.937394
     1357.800000       0.936913
     1357.900000       0.936367
     1358.000000       0.935757
     1358.100000       0.935095
     1358.200000       0.934396
     1358.300000       0.933669
     1358.400000       0.932935
     1358.500000       0.932217
     1358.600000       0.931523
     1358.700000       0.930888
     1358.800000       0.930298
     1358.900000       0.929760
     1359.000000       0.929246
     1359.100000       0.928736
     1359.200000       0.928214
     1359.300000       0.927660
     1359.400000       0.927073
     1359.500000       0.926430
     1359.600000       0.925693
     1359.700000       0.924861
     1359.800000       0.923953
     1359.900000       0.922957
     1360.000000       0.921784
     1360.100000       0.920598
     1360.200000       0.919503
     1360.300000       0.918423
     1360.400000       0.917351
     1360.500000       0.916340
     1360.600000       0.915406
     1360.700000       0.914571
     1360.800000       0.913816
     1360.900000       0.913155
     1361.000000       0.912522
     1361.100000       0.911916
     1361.200000       0.911310
     1361.300000       0.910672
     1361.400000       0.909968
     1361.500000       0.909107
     1361.600000       0.908050
     1361.700000       0.906740
     1361.800000       0.905084
     1361.900000       0.903091
     1362.000000       0.900949
     1362.100000       0.898862
     1362.200000       0.896981
     1362.300000       0.895425
     1362.400000       0.894270
     1362.500000       0.893405
     1362.600000       0.892565
     1362.700000       0.891342
     1362.800000       0.889752
     1362.900000       0.887854
     1363.000000       0.885487
     1363.100000       0.882764
     1363.200000       0.880103
     1363.300000       0.877958
     1363.400000       0.876568
     1363.500000       0.875454
     1363.600000       0.873978
     1363.700000       0.871458
     1363.800000       0.867962
     1363.900000       0.864029
     1364.000000       0.860417
     1364.100000       0.857534
     1364.200000       0.855089
     1364.300000       0.852347
     1364.400000       0.848749
     1364.500000       0.847241
     1364.600000       0.849844
     1364.700000       0.853523
     1364.800000       0.854352
     1364.900000       0.848392
     1365.000000       0.839325
     1365.100000       0.832347
     1365.200000       0.827764
     1365.300000       0.824583
     1365.400000       0.821050
     1365.500000       0.816860
     1365.600000       0.812564
     1365.700000       0.809009
     1365.800000       0.805827
     1365.900000       0.800930
     1366.000000       0.793696
     1366.100000       0.784240
     1366.200000       0.773379
     1366.300000       0.763502
     1366.400000       0.759903
     1366.500000       0.760730
     1366.600000       0.759575
     1366.700000       0.755864
     1366.800000       0.750727
     1366.900000       0.745671
     1367.000000       0.740975
     1367.100000       0.735898
     1367.200000       0.730457
     1367.300000       0.724757
     1367.400000       0.718014
     1367.500000       0.709278
     1367.600000       0.697627
     1367.700000       0.685104
     1367.800000       0.674799
     1367.900000       0.666771
     1368.000000       0.660583
     1368.100000       0.655870
     1368.200000       0.650575
     1368.300000       0.641954
     1368.400000       0.632674
     1368.500000       0.625159
     1368.600000       0.618809
     1368.700000       0.612753
     1368.800000       0.606302
     1368.900000       0.600590
     1369.000000       0.596837
     1369.100000       0.595159
     1369.200000       0.594311
     1369.300000       0.591940
     1369.400000       0.587772
     1369.500000       0.582606
     1369.600000       0.578233
     1369.700000       0.573614
     1369.800000       0.563989
     1369.900000       0.552544
     1370.000000       0.545331
     1370.100000       0.540917
     1370.200000       0.537052
     1370.300000       0.532409
     1370.400000       0.525338
     1370.500000       0.514379
     1370.600000       0.502975
     1370.700000       0.494330
     1370.800000       0.487723
     1370.900000       0.481814
     1371.000000       0.475229
     1371.100000       0.469504
     1371.200000       0.466273
     1371.300000       0.464361
     1371.400000       0.462571
     1371.500000       0.459896
     1371.600000       0.455738
     1371.700000       0.450080
     1371.800000       0.444723
     1371.900000       0.440449
     1372.000000       0.436328
     1372.100000       0.430650
     1372.200000       0.422036
     1372.300000       0.412795
     1372.400000       0.403838
     1372.500000       0.392316
     1372.600000       0.380623
     1372.700000       0.374416
     1372.800000       0.372310
     1372.900000       0.371807
     1373.000000       0.371951
     1373.100000       0.372156
     1373.200000       0.371816
     1373.300000       0.370099
     1373.400000       0.366282
     1373.500000       0.360595
     1373.600000       0.353365
     1373.700000       0.345061
     1373.800000       0.336587
     1373.900000       0.329020
     1374.000000       0.322822
     1374.100000       0.317985
     1374.200000       0.314005
     1374.300000       0.310591
     1374.400000       0.307585
     1374.500000       0.304617
     1374.600000       0.301079
     1374.700000       0.295941
     1374.800000       0.287714
     1374.900000       0.275257
     1375.000000       0.263364
     1375.100000       0.256289
     1375.200000       0.252966
     1375.300000       0.251105
     1375.400000       0.247869
     1375.500000       0.243621
     1375.600000       0.239635
     1375.700000       0.236106
     1375.800000       0.232935
     1375.900000       0.229951
     1376.000000       0.227008
     1376.100000       0.223939
     1376.200000       0.220563
     1376.300000       0.216456
     1376.400000       0.210957
     1376.500000       0.205418
     1376.600000       0.202087
     1376.700000       0.200038
     1376.800000       0.198055
     1376.900000       0.195540
     1377.000000       0.191826
     1377.100000       0.186457
     1377.200000       0.180759
     1377.300000       0.176016
     1377.400000       0.172211
     1377.500000       0.169075
     1377.600000       0.166176
     1377.700000       0.163455
     1377.800000       0.161028
     1377.900000       0.158941
     1378.000000       0.157287
     1378.100000       0.155879
     1378.200000       0.154288
     1378.300000       0.152145
     1378.400000       0.149157
     1378.500000       0.145550
     1378.600000       0.142088
     1378.700000       0.139492
     1378.800000       0.138307
     1378.900000       0.138093
     1379.000000       0.138103
     1379.100000       0.137917
     1379.200000       0.137448
     1379.300000       0.136662
     1379.400000       0.135152
     1379.500000       0.132607
     1379.600000       0.129397
     1379.700000       0.126082
     1379.800000       0.123412
     1379.900000       0.121318
     1380.000000       0.119551
     1380.100000       0.118036
     1380.200000       0.116722
     1380.300000       0.115456
     1380.400000       0.114124
     1380.500000       0.112563
     1380.600000       0.110660
     1380.700000       0.108313
     1380.800000       0.105372
     1380.900000       0.101568
     1381.000000       0.096729
     1381.100000       0.092045
     1381.200000       0.088596
     1381.300000       0.086229
     1381.400000       0.084660
     1381.500000       0.083628
     1381.600000       0.082861
     1381.700000       0.082116
     1381.800000       0.081191
     1381.900000       0.080112
     1382.000000       0.079048
     1382.100000       0.077975
     1382.200000       0.076768
     1382.300000       0.075549
     1382.400000       0.074340
     1382.500000       0.073144
     1382.600000       0.071921
     1382.700000       0.070684
     1382.800000       0.069518
     1382.900000       0.068461
     1383.000000       0.067377
     1383.100000       0.066306
     1383.200000       0.065369
     1383.300000       0.064434
     1383.400000       0.063425
     1383.500000       0.062454
     1383.600000       0.061546
     1383.700000       0.060567
     1383.800000       0.059563
     1383.900000       0.058634
     1384.000000       0.057731
     1384.100000       0.056815
     1384.200000       0.055839
     1384.300000       0.054838
     1384.400000       0.053902
     1384.500000       0.053015
     1384.600000       0.052105
     1384.700000       0.051094
     1384.800000       0.050032
     1384.900000       0.049090
     1385.000000       0.048180
     1385.100000       0.047239
     1385.200000       0.046328
     1385.300000       0.045469
     1385.400000       0.044639
     1385.500000       0.043827
     1385.600000       0.043011
     1385.700000       0.042169
     1385.800000       0.041341
     1385.900000       0.040637
     1386.000000       0.039964
     1386.100000       0.039223
     1386.200000       0.038515
     1386.300000       0.037862
     1386.400000       0.037226
     1386.500000       0.036579
     1386.600000       0.035933
     1386.700000       0.035285
     1386.800000       0.034622
     1386.900000       0.034015
     1387.000000       0.033440
     1387.100000       0.032859
     1387.200000       0.032235
     1387.300000       0.031582
     1387.400000       0.031000
     1387.500000       0.030476
     1387.600000       0.029924
     1387.700000       0.029408
     1387.800000       0.029000
     1387.900000       0.028640
     1388.000000       0.028314
     1388.100000       0.028048
     1388.200000       0.027781
     1388.300000       0.027452
     1388.400000       0.027111
     1388.500000       0.026771
     1388.600000       0.026407
     1388.700000       0.025985
     1388.800000       0.025517
     1388.900000       0.025040
     1389.000000       0.024578
     1389.100000       0.024106
     1389.200000       0.023651
     1389.300000       0.023271
     1389.400000       0.022871
     1389.500000       0.022415
     1389.600000       0.021999
     1389.700000       0.021647
     1389.800000       0.021288
     1389.900000       0.020922
     1390.000000       0.020572
     1390.100000       0.020214
     1390.200000       0.019837
     1390.300000       0.019477
     1390.400000       0.019169
     1390.500000       0.018913
     1390.600000       0.018624
     1390.700000       0.018277
     1390.800000       0.018004
     1390.900000       0.017755
     1391.000000       0.017420
     1391.100000       0.017107
     1391.200000       0.016864
     1391.300000       0.016558
     1391.400000       0.016212
     1391.500000       0.015938
     1391.600000       0.015662
     1391.700000       0.015312
     1391.800000       0.014984
     1391.900000       0.014717
     1392.000000       0.014461
     1392.100000       0.014180
     1392.200000       0.013886
     1392.300000       0.013641
     1392.400000       0.013443
     1392.500000       0.013231
     1392.600000       0.013031
     1392.700000       0.012904
     1392.800000       0.012739
     1392.900000       0.012511
     1393.000000       0.012308
     1393.100000       0.012141
     1393.200000       0.011985
     1393.300000       0.011829
     1393.400000       0.011672
     1393.500000       0.011514
     1393.600000       0.011368
     1393.700000       0.011222
     1393.800000       0.011086
     1393.900000       0.010938
     1394.000000       0.010789
     1394.100000       0.010639
     1394.200000       0.010488
     1394.300000       0.010336
     1394.400000       0.010196
     1394.500000       0.010042
     1394.600000       0.009900
     1394.700000       0.009745
     1394.800000       0.009590
     1394.900000       0.009434
     1395.000000       0.009278
     1395.100000       0.009135
     1395.200000       0.008979
     1395.300000       0.008825
     1395.400000       0.008682
     1395.500000       0.008517
     1395.600000       0.008352
     1395.700000       0.008200
     1395.800000       0.008049
     1395.900000       0.007899
     1396.000000       0.007761
     1396.100000       0.007611
     1396.200000       0.007461
     1396.300000       0.007300
     1396.400000       0.007162
     1396.500000       0.007013
     1396.600000       0.006864
     1396.700000       0.006703
     1396.800000       0.006554
     1396.900000       0.006406
     1397.000000       0.006257
     1397.100000       0.006110
     1397.200000       0.005974
     1397.300000       0.005839
     1397.400000       0.005717
     1397.500000       0.005607
     1397.600000       0.005509
     1397.700000       0.005423
     1397.800000       0.005338
     1397.900000       0.005265
     1398.000000       0.005204
     1398.100000       0.005143
     1398.200000       0.005093
     1398.300000       0.005032
     1398.400000       0.004983
     1398.500000       0.004945
     1398.600000       0.004896
     1398.700000       0.004858
     1398.800000       0.004809
     1398.900000       0.004747
     1399.000000       0.004698
     1399.100000       0.004648
     1399.200000       0.004587
     1399.300000       0.004526
     1399.400000       0.004453
     1399.500000       0.004381
     1399.600000       0.004297
     1399.700000       0.004212
     1399.800000       0.004128
     1399.900000       0.004044
     1400.000000       0.003960
     1400.100000       0.003888
     1400.200000       0.003792
     1400.300000       0.003721
     1400.400000       0.003637
     1400.500000       0.003565
     1400.600000       0.003506
     1400.700000       0.003435
     1400.800000       0.003387
     1400.900000       0.003339
     1401.000000       0.003292
     1401.100000       0.003256
     1401.200000       0.003220
     1401.300000       0.003184
     1401.400000       0.003147
     1401.500000       0.003123
     1401.600000       0.003086
     1401.700000       0.003050
     1401.800000       0.003013
     1401.900000       0.002976
     1402.000000       0.002928
     1402.100000       0.002880
     1402.200000       0.002832
     1402.300000       0.002760
     1402.400000       0.002689
     1402.500000       0.002617
     1402.600000       0.002535
     1402.700000       0.002464
     1402.800000       0.002381
     1402.900000       0.002299
     1403.000000       0.002217
     1403.100000       0.002135
     1403.200000       0.002065
     1403.300000       0.001984
     1403.400000       0.001902
     1403.500000       0.001821
     1403.600000       0.001763
     1403.700000       0.001694
     1403.800000       0.001636
     1403.900000       0.001578
     1404.000000       0.001543
     1404.100000       0.001508
     1404.200000       0.001485
     1404.300000       0.001462
     1404.400000       0.001438
     1404.500000       0.001415
     1404.600000       0.001393
     1404.700000       0.001370
     1404.800000       0.001347
     1404.900000       0.001313
     1405.000000       0.001268
     1405.100000       0.001222
     1405.200000       0.001177
     1405.300000       0.001131
     1405.400000       0.001085
     1405.500000       0.001039
     1405.600000       0.000993
     1405.700000       0.000948
     1405.800000       0.000901
     1405.900000       0.000867
     1406.000000       0.000821
     1406.100000       0.000786
     1406.200000       0.000752
     1406.300000       0.000706
     1406.400000       0.000672
     1406.500000       0.000626
     1406.600000       0.000580
     1406.700000       0.000534
     1406.800000       0.000487
     1406.900000       0.000441
     1407.000000       0.000384
     1407.100000       0.000314
     1407.200000       0.000256
     1407.300000       0.000186
     1407.400000       0.000128
     1407.500000       0.000070
     1407.600000       0.000023
     1407.700000       0.000000
     1407.800000       0.000000
     1407.900000       0.000000
     1408.000000       0.000000
     1408.100000       0.000000
     1408.200000       0.000000
     1408.300000       0.000000
     1408.400000       0.000000
     1408.500000       0.000000
     1408.600000       0.000000
     1408.700000       0.000000
     1408.800000       0.000000
     1408.900000       0.000000
     1409.000000       0.000000
     1409.100000       0.000012
     1409.200000       0.000023
     1409.300000       0.000058
     1409.400000       0.000093
     1409.500000       0.000117
     1409.600000       0.000152
     1409.700000       0.000187
     1409.800000       0.000222
     1409.900000       0.000257
     1410.000000       0.000292
     1410.100000       0.000315
     1410.200000       0.000350
     1410.300000       0.000386
     1410.400000       0.000421
     1410.500000       0.000456
     1410.600000       0.000491
     1410.700000       0.000526
     1410.800000       0.000561
     1410.900000       0.000585
     1411.000000       0.000620
     1411.100000       0.000644
     1411.200000       0.000667
     1411.300000       0.000690
     1411.400000       0.000714
     1411.500000       0.000725
     1411.600000       0.000725
     1411.700000       0.000737
     1411.800000       0.000737
     1411.900000       0.000725
     1412.000000       0.000714
     1412.100000       0.000690
     1412.200000       0.000667
     1412.300000       0.000644
     1412.400000       0.000621
     1412.500000       0.000585
     1412.600000       0.000562
     1412.700000       0.000527
     1412.800000       0.000503
     1412.900000       0.000480
     1413.000000       0.000456
     1413.100000       0.000444
     1413.200000       0.000444
     1413.300000       0.000444
     1413.400000       0.000456
     1413.500000       0.000479
     1413.600000       0.000503
     1413.700000       0.000526
     1413.800000       0.000561
     1413.900000       0.000596
     1414.000000       0.000631
     1414.100000       0.000666
     1414.200000       0.000712
     1414.300000       0.000747
     1414.400000       0.000794
     1414.500000       0.000829
     1414.600000       0.000864
     1414.700000       0.000898
     1414.800000       0.000933
     1414.900000       0.000968
     1415.000000       0.000991
     1415.100000       0.001002
     1415.200000       0.001014
     1415.300000       0.001013
     1415.400000       0.001013
     1415.500000       0.001002
     1415.600000       0.000979
     1415.700000       0.000967
     1415.800000       0.000944
     1415.900000       0.000921
     1416.000000       0.000897
     1416.100000       0.000863
     1416.200000       0.000839
     1416.300000       0.000816
     1416.400000       0.000793
     1416.500000       0.000770
     1416.600000       0.000758
     1416.700000       0.000746
     1416.800000       0.000735
     1416.900000       0.000746
     1417.000000       0.000746
     1417.100000       0.000770
     1417.200000       0.000793
     1417.300000       0.000828
     1417.400000       0.000863
     1417.500000       0.000910
     1417.600000       0.000957
     1417.700000       0.000992
     1417.800000       0.001039
     1417.900000       0.001074
     1418.000000       0.001097
     1418.100000       0.001132
     1418.200000       0.001143
     1418.300000       0.001143
     1418.400000       0.001143
     1418.500000       0.001119
     1418.600000       0.001095
     1418.700000       0.001048
     1418.800000       0.001013
     1418.900000       0.000967
     1419.000000       0.000933
     1419.100000       0.000887
     1419.200000       0.000853
     1419.300000       0.000830
     1419.400000       0.000820
     1419.500000       0.000809
     1419.600000       0.000821
     1419.700000       0.000833
     1419.800000       0.000844
     1419.900000       0.000867
     1420.000000       0.000889
     1420.100000       0.000922
     1420.200000       0.000954
     1420.300000       0.000987
     1420.400000       0.001031
     1420.500000       0.001063
     1420.600000       0.001108
     1420.700000       0.001141
     1420.800000       0.001176
     1420.900000       0.001223
     1421.000000       0.001258
     1421.100000       0.001306
     1421.200000       0.001343
     1421.300000       0.001379
     1421.400000       0.001416
     1421.500000       0.001452
     1421.600000       0.001487
     1421.700000       0.001511
     1421.800000       0.001534
     1421.900000       0.001556
     1422.000000       0.001566
     1422.100000       0.001577
     1422.200000       0.001599
     1422.300000       0.001610
     1422.400000       0.001621
     1422.500000       0.001633
     1422.600000       0.001645
     1422.700000       0.001668
     1422.800000       0.001692
     1422.900000       0.001728
     1423.000000       0.001751
     1423.100000       0.001786
     1423.200000       0.001821
     1423.300000       0.001868
     1423.400000       0.001915
     1423.500000       0.001973
     1423.600000       0.002054
     1423.700000       0.001611
     1423.800000       0.001109
