15, channel 15 digitised from file HIRS_filters.pdf provided by Ronald Glumb (ITT Exelisinc) at  http://ntrs.nasagov/search.jsp?R=19760014184
Number of data points:
63
Wavenumber (cm-1)   Filter response
     2317.630000       0.000000
     2319.460000       0.000836
     2322.960000       0.001977
     2324.950000       0.004067
     2327.230000       0.005348
     2329.830000       0.007368
     2331.360000       0.008737
     2333.650000       0.010792
     2335.050000       0.016044
     2336.470000       0.025934
     2337.760000       0.037387
     2339.060000       0.052705
     2339.910000       0.067304
     2341.130000       0.093461
     2341.580000       0.119706
     2342.720000       0.158248
     2343.330000       0.210001
     2343.850000       0.247067
     2344.430000       0.293409
     2345.140000       0.337415
     2345.710000       0.382984
     2346.060000       0.416203
     2346.850000       0.447051
     2347.340000       0.480253
     2347.850000       0.515001
     2348.970000       0.550451
     2349.910000       0.580508
     2351.280000       0.607420
     2352.150000       0.625883
     2353.150000       0.640464
     2353.970000       0.651970
     2354.630000       0.659629
     2355.290000       0.668834
     2356.570000       0.680287
     2357.660000       0.684802
     2357.970000       0.684766
     2358.550000       0.680831
     2359.280000       0.675332
     2359.990000       0.666742
     2360.670000       0.653513
     2361.470000       0.634084
     2362.400000       0.611545
     2363.430000       0.579713
     2364.580000       0.542452
     2365.680000       0.496689
     2366.780000       0.451699
     2367.860000       0.402072
     2368.620000       0.350160
     2369.540000       0.300550
     2370.310000       0.250185
     2371.540000       0.200540
     2372.620000       0.150912
     2373.690000       0.101284
     2375.030000       0.069417
     2376.580000       0.048353
     2377.990000       0.031172
     2379.290000       0.019419
     2380.750000       0.009194
     2384.240000       0.007243
     2387.270000       0.006118
     2390.910000       0.004149
     2395.900000       0.000476
     2398.630000       0.000000
