6,   channel SWIR1 SRF from LSTM_ISRF_all_bands.xlsx
Number of data points:
178
Wavenumber (cm-1)   Filter response
     6990.562740       0.000000
     6993.006993       0.000000
     6995.452956       0.000000
     6997.900630       0.000000
     7000.350018       0.000000
     7002.801120       0.000000
     7005.253940       0.000000
     7007.708479       0.000000
     7010.164739       0.000000
     7012.622721       0.000000
     7015.082427       0.000000
     7017.543860       0.000000
     7020.007020       0.000000
     7022.471910       0.000000
     7024.938532       0.000000
     7027.406887       0.000000
     7029.876977       0.000000
     7032.348805       0.000000
     7034.822371       0.000000
     7037.297678       0.000000
     7039.774727       0.000000
     7042.253521       0.000000
     7044.734061       0.000000
     7047.216350       0.000000
     7049.700388       0.000000
     7052.186178       0.000000
     7054.673721       0.000000
     7057.163020       0.000000
     7059.654077       0.000001
     7062.146893       0.000001
     7064.641469       0.000001
     7067.137809       0.000001
     7069.635914       0.000001
     7072.135785       0.000002
     7074.637425       0.000002
     7077.140835       0.000003
     7079.646018       0.000004
     7082.152975       0.000005
     7084.661707       0.000007
     7087.172218       0.000010
     7089.684509       0.000014
     7092.198582       0.000019
     7094.714438       0.000026
     7097.232079       0.000037
     7099.751509       0.000053
     7102.272727       0.000077
     7104.795737       0.000114
     7107.320540       0.000172
     7109.847138       0.000264
     7112.375533       0.000413
     7114.905727       0.000662
     7117.437722       0.001089
     7119.971520       0.001847
     7122.507123       0.003236
     7125.044532       0.005864
     7127.583749       0.010966
     7130.124777       0.020837
     7132.667618       0.038824
     7135.212273       0.067615
     7137.758744       0.106599
     7140.307033       0.152208
     7142.857143       0.200788
     7145.409075       0.250044
     7147.962831       0.299018
     7150.518413       0.347005
     7153.075823       0.394134
     7155.635063       0.439984
     7158.196135       0.483994
     7160.759040       0.527402
     7163.323782       0.567940
     7165.890362       0.607521
     7168.458781       0.646554
     7171.029043       0.682093
     7173.601148       0.717827
     7176.175099       0.753640
     7178.750897       0.785359
     7181.328546       0.816877
     7183.908046       0.849951
     7186.489400       0.878488
     7189.072610       0.903258
     7191.657677       0.929494
     7194.244604       0.953435
     7196.833393       0.969073
     7199.424046       0.979233
     7202.016565       0.988225
     7204.610951       0.995331
     7207.207207       0.998888
     7209.805335       0.999941
     7212.405337       1.000000
     7215.007215       0.999790
     7217.610971       0.999478
     7220.216606       0.999089
     7222.824124       0.998651
     7225.433526       0.998241
     7228.044814       0.997843
     7230.657990       0.997483
     7233.273056       0.997158
     7235.890014       0.996889
     7238.508867       0.996595
     7241.129616       0.996278
     7243.752264       0.995911
     7246.376812       0.995498
     7249.003262       0.995027
     7251.631617       0.994549
     7254.261879       0.994070
     7256.894049       0.993618
     7259.528131       0.993149
     7262.164125       0.992649
     7264.802034       0.992010
     7267.441860       0.991204
     7270.083606       0.990240
     7272.727273       0.989225
     7275.372863       0.988245
     7278.020378       0.986920
     7280.669822       0.983456
     7283.321194       0.974208
     7285.974499       0.955267
     7288.629738       0.925599
     7291.286912       0.887204
     7293.946025       0.843081
     7296.607078       0.795796
     7299.270073       0.747101
     7301.935013       0.698139
     7304.601899       0.649762
     7307.270734       0.602086
     7309.941520       0.556094
     7312.614260       0.511347
     7315.288954       0.467857
     7317.965606       0.426955
     7320.644217       0.386533
     7323.324789       0.347431
     7326.007326       0.311410
     7328.691829       0.274978
     7331.378299       0.239048
     7334.066740       0.207153
     7336.757153       0.175638
     7339.449541       0.143046
     7342.143906       0.115098
     7344.840250       0.092383
     7347.538575       0.070511
     7350.238883       0.050215
     7352.941176       0.035231
     7355.645458       0.025103
     7358.351729       0.017204
     7361.059993       0.010706
     7363.770250       0.006181
     7366.482505       0.003510
     7369.196758       0.002024
     7371.913011       0.001182
     7374.631268       0.000697
     7377.351531       0.000419
     7380.073801       0.000258
     7382.798080       0.000164
     7385.524372       0.000107
     7388.252678       0.000071
     7390.983001       0.000048
     7393.715342       0.000034
     7396.449704       0.000024
     7399.186090       0.000017
     7401.924500       0.000012
     7404.664939       0.000009
     7407.407407       0.000007
     7410.151908       0.000005
     7412.898443       0.000004
     7415.647015       0.000003
     7418.397626       0.000002
     7421.150278       0.000002
     7423.904974       0.000001
     7426.661716       0.000001
     7429.420505       0.000001
     7432.181345       0.000001
     7434.944238       0.000001
     7437.709186       0.000000
     7440.476190       0.000000
     7443.245255       0.000000
     7446.016381       0.000000
     7448.789572       0.000000
     7451.564829       0.000000
