  15  ,noaa_11_hirs_15.flt
Number of data points:
101
Wavenumber (cm-1)   Filter response
     2200.500000       0.000000
     2201.200000       0.000000
     2201.900000       0.000000
     2202.600000       0.000000
     2203.300000       0.000000
     2204.000000       0.000000
     2204.700000       0.000000
     2205.400000       0.000000
     2206.100000       0.000000
     2206.800000       0.000000
     2207.500000       0.000000
     2208.200000       0.000000
     2208.900000       0.000000
     2209.500000       0.000000
     2210.200000       0.000000
     2210.900000       0.001506
     2211.600000       0.001440
     2212.300000       0.004398
     2213.000000       0.004338
     2213.700000       0.007301
     2214.400000       0.007246
     2215.100000       0.009760
     2215.800000       0.011115
     2216.500000       0.015288
     2217.200000       0.021822
     2217.900000       0.033556
     2218.600000       0.039807
     2219.300000       0.048286
     2220.000000       0.056326
     2220.700000       0.075592
     2221.400000       0.093886
     2222.100000       0.115530
     2222.800000       0.146070
     2223.400000       0.180610
     2224.200000       0.215300
     2224.900000       0.253560
     2225.600000       0.301730
     2226.300000       0.347330
     2227.000000       0.400850
     2227.700000       0.451140
     2228.400000       0.513060
     2229.100000       0.571670
     2229.800000       0.625190
     2230.500000       0.679910
     2231.200000       0.728390
     2231.900000       0.776560
     2232.600000       0.834320
     2233.300000       0.875260
     2234.000000       0.912220
     2234.700000       0.944710
     2235.400000       0.970610
     2236.100000       0.986410
     2236.800000       0.996050
     2237.500000       1.000000
     2238.200000       0.998930
     2238.900000       0.995290
     2239.600000       0.986710
     2240.300000       0.974970
     2241.000000       0.957060
     2241.700000       0.941560
     2242.400000       0.924590
     2243.100000       0.913600
     2243.900000       0.902210
     2244.600000       0.883470
     2245.300000       0.867800
     2246.000000       0.847690
     2246.700000       0.812430
     2247.400000       0.775310
     2248.100000       0.729220
     2248.800000       0.678520
     2249.600000       0.620820
     2250.300000       0.564890
     2251.000000       0.503600
     2251.700000       0.440040
     2252.400000       0.375460
     2253.100000       0.312400
     2253.800000       0.261550
     2254.500000       0.206830
     2255.300000       0.161820
     2256.000000       0.125210
     2256.700000       0.094810
     2257.400000       0.071121
     2258.100000       0.057799
     2258.800000       0.037541
     2259.500000       0.030712
     2260.200000       0.020006
     2260.900000       0.019519
     2261.600000       0.014500
     2262.300000       0.012141
     2263.000000       0.008612
     2263.700000       0.004603
     2264.300000       0.001786
     2265.000000       0.001841
     2265.700000       0.000000
     2266.400000       0.000000
     2267.100000       0.000000
     2267.800000       0.000000
     2268.500000       0.000000
     2269.200000       0.000000
     2269.900000       0.000000
     2270.600000       0.000000
