12,   channel 12 SRF from file SRF_SSH-1_Delivery_220520/SRF_DMSP-F4_SSH_Chan12.asc received June 2022 from SPASCIA
Number of data points:
251
Wavenumber (cm-1)   Filter response
      694.600000       0.000930
      694.700000       0.001040
      694.800000       0.001160
      694.900000       0.001300
      695.000000       0.001450
      695.100000       0.001610
      695.200000       0.001790
      695.300000       0.001990
      695.400000       0.002210
      695.500000       0.002450
      695.600000       0.002720
      695.700000       0.003010
      695.800000       0.003340
      695.900000       0.003690
      696.000000       0.004070
      696.100000       0.004500
      696.200000       0.004960
      696.300000       0.005460
      696.400000       0.006010
      696.500000       0.006610
      696.600000       0.007270
      696.700000       0.007980
      696.800000       0.008750
      696.900000       0.009590
      697.000000       0.010500
      697.100000       0.011490
      697.200000       0.012560
      697.300000       0.013710
      697.400000       0.014960
      697.500000       0.016300
      697.600000       0.017760
      697.700000       0.019320
      697.800000       0.021000
      697.900000       0.022810
      698.000000       0.024760
      698.100000       0.026840
      698.200000       0.029070
      698.300000       0.031470
      698.400000       0.034020
      698.500000       0.036760
      698.600000       0.039670
      698.700000       0.042790
      698.800000       0.046100
      698.900000       0.049620
      699.000000       0.053370
      699.100000       0.057350
      699.200000       0.061570
      699.300000       0.066050
      699.400000       0.070780
      699.500000       0.075790
      699.600000       0.081070
      699.700000       0.086650
      699.800000       0.092530
      699.900000       0.098720
      700.000000       0.111020
      700.100000       0.125360
      700.200000       0.140330
      700.300000       0.155900
      700.400000       0.172080
      700.500000       0.188850
      700.600000       0.206190
      700.700000       0.224080
      700.800000       0.242510
      700.900000       0.261450
      701.000000       0.280880
      701.100000       0.300770
      701.200000       0.321080
      701.300000       0.341780
      701.400000       0.362840
      701.500000       0.384210
      701.600000       0.405870
      701.700000       0.427760
      701.800000       0.449850
      701.900000       0.472080
      702.000000       0.494410
      702.100000       0.510270
      702.200000       0.524050
      702.300000       0.537910
      702.400000       0.551840
      702.500000       0.565830
      702.600000       0.579850
      702.700000       0.593910
      702.800000       0.607980
      702.900000       0.622050
      703.000000       0.636100
      703.100000       0.650120
      703.200000       0.664090
      703.300000       0.677990
      703.400000       0.691820
      703.500000       0.705540
      703.600000       0.719160
      703.700000       0.732630
      703.800000       0.745960
      703.900000       0.759130
      704.000000       0.772110
      704.100000       0.784890
      704.200000       0.797450
      704.300000       0.809780
      704.400000       0.821850
      704.500000       0.833660
      704.600000       0.845180
      704.700000       0.856400
      704.800000       0.867300
      704.900000       0.877870
      705.000000       0.888090
      705.100000       0.897940
      705.200000       0.907420
      705.300000       0.916500
      705.400000       0.925170
      705.500000       0.933420
      705.600000       0.941240
      705.700000       0.948620
      705.800000       0.955540
      705.900000       0.961990
      706.000000       0.967960
      706.100000       0.973450
      706.200000       0.978440
      706.300000       0.982920
      706.400000       0.986900
      706.500000       0.990360
      706.600000       0.993290
      706.700000       0.995700
      706.800000       0.997580
      706.900000       0.998920
      707.000000       0.999730
      707.100000       1.000000
      707.200000       0.999730
      707.300000       0.998920
      707.400000       0.997580
      707.500000       0.995700
      707.600000       0.993290
      707.700000       0.990360
      707.800000       0.986900
      707.900000       0.982920
      708.000000       0.978440
      708.100000       0.973450
      708.200000       0.967960
      708.300000       0.961990
      708.400000       0.955540
      708.500000       0.948620
      708.600000       0.941240
      708.700000       0.933420
      708.800000       0.925170
      708.900000       0.916500
      709.000000       0.907420
      709.100000       0.897940
      709.200000       0.888090
      709.300000       0.877870
      709.400000       0.867300
      709.500000       0.856400
      709.600000       0.845180
      709.700000       0.833660
      709.800000       0.821850
      709.900000       0.809780
      710.000000       0.797450
      710.100000       0.784890
      710.200000       0.772110
      710.300000       0.759130
      710.400000       0.745960
      710.500000       0.732630
      710.600000       0.719160
      710.700000       0.705540
      710.800000       0.691820
      710.900000       0.677990
      711.000000       0.664090
      711.100000       0.650120
      711.200000       0.636100
      711.300000       0.622050
      711.400000       0.607980
      711.500000       0.593910
      711.600000       0.579850
      711.700000       0.565830
      711.800000       0.551840
      711.900000       0.537910
      712.000000       0.524050
      712.100000       0.510270
      712.200000       0.494410
      712.300000       0.472080
      712.400000       0.449850
      712.500000       0.427760
      712.600000       0.405870
      712.700000       0.384210
      712.800000       0.362840
      712.900000       0.341780
      713.000000       0.321080
      713.100000       0.300770
      713.200000       0.280880
      713.300000       0.261450
      713.400000       0.242510
      713.500000       0.224080
      713.600000       0.206190
      713.700000       0.188850
      713.800000       0.172080
      713.900000       0.155900
      714.000000       0.140330
      714.100000       0.125360
      714.200000       0.111020
      714.300000       0.098720
      714.400000       0.092530
      714.500000       0.086650
      714.600000       0.081070
      714.700000       0.075790
      714.800000       0.070780
      714.900000       0.066050
      715.000000       0.061570
      715.100000       0.057350
      715.200000       0.053370
      715.300000       0.049620
      715.400000       0.046100
      715.500000       0.042790
      715.600000       0.039670
      715.700000       0.036760
      715.800000       0.034020
      715.900000       0.031470
      716.000000       0.029070
      716.100000       0.026840
      716.200000       0.024760
      716.300000       0.022810
      716.400000       0.021000
      716.500000       0.019320
      716.600000       0.017760
      716.700000       0.016300
      716.800000       0.014960
      716.900000       0.013710
      717.000000       0.012560
      717.100000       0.011490
      717.200000       0.010500
      717.300000       0.009590
      717.400000       0.008750
      717.500000       0.007980
      717.600000       0.007270
      717.700000       0.006610
      717.800000       0.006010
      717.900000       0.005460
      718.000000       0.004960
      718.100000       0.004500
      718.200000       0.004070
      718.300000       0.003690
      718.400000       0.003340
      718.500000       0.003010
      718.600000       0.002720
      718.700000       0.002450
      718.800000       0.002210
      718.900000       0.001990
      719.000000       0.001790
      719.100000       0.001610
      719.200000       0.001450
      719.300000       0.001300
      719.400000       0.001160
      719.500000       0.001040
      719.600000       0.000930
