7,   channel SWIR2 SRF from LSTM_ISRF_all_bands.xlsx
Number of data points:
540
Wavenumber (cm-1)   Filter response
     5636.978579       0.000036
     5638.567804       0.000037
     5640.157924       0.000038
     5641.748942       0.000038
     5643.340858       0.000039
     5644.933672       0.000040
     5646.527386       0.000041
     5648.121999       0.000042
     5649.717514       0.000043
     5651.313930       0.000044
     5652.911249       0.000045
     5654.509471       0.000046
     5656.108597       0.000047
     5657.708628       0.000048
     5659.309564       0.000049
     5660.911407       0.000050
     5662.514156       0.000051
     5664.117814       0.000052
     5665.722380       0.000053
     5667.327855       0.000054
     5668.934240       0.000055
     5670.541537       0.000056
     5672.149745       0.000057
     5673.758865       0.000058
     5675.368899       0.000059
     5676.979847       0.000060
     5678.591709       0.000061
     5680.204487       0.000062
     5681.818182       0.000063
     5683.432793       0.000064
     5685.048323       0.000065
     5686.664771       0.000066
     5688.282139       0.000067
     5689.900427       0.000068
     5691.519636       0.000068
     5693.139767       0.000069
     5694.760820       0.000070
     5696.382797       0.000070
     5698.005698       0.000071
     5699.629524       0.000071
     5701.254276       0.000067
     5702.879954       0.000067
     5704.506560       0.000067
     5706.134094       0.000068
     5707.762557       0.000068
     5709.391950       0.000068
     5711.022273       0.000068
     5712.653528       0.000068
     5714.285714       0.000068
     5715.918834       0.000068
     5717.552887       0.000068
     5719.187875       0.000068
     5720.823799       0.000068
     5722.460658       0.000068
     5724.098454       0.000067
     5725.737189       0.000067
     5727.376861       0.000067
     5729.017474       0.000067
     5730.659026       0.000066
     5732.301519       0.000066
     5733.944954       0.000065
     5735.589332       0.000065
     5737.234653       0.000065
     5738.880918       0.000064
     5740.528129       0.000064
     5742.176285       0.000063
     5743.825388       0.000063
     5745.475438       0.000062
     5747.126437       0.000062
     5748.778385       0.000061
     5750.431282       0.000061
     5752.085131       0.000061
     5753.739931       0.000060
     5755.395683       0.000060
     5757.052389       0.000059
     5758.710049       0.000059
     5760.368664       0.000058
     5762.028234       0.000058
     5763.688761       0.000058
     5765.350245       0.000058
     5767.012687       0.000057
     5768.676089       0.000057
     5770.340450       0.000057
     5772.005772       0.000057
     5773.672055       0.000056
     5775.339301       0.000056
     5777.007510       0.000056
     5778.676683       0.000056
     5780.346821       0.000056
     5782.017924       0.000056
     5783.689994       0.000056
     5785.363032       0.000056
     5787.037037       0.000057
     5788.712012       0.000057
     5790.387956       0.000057
     5792.064871       0.000057
     5793.742758       0.000058
     5795.421617       0.000058
     5797.101449       0.000059
     5798.782256       0.000059
     5800.464037       0.000060
     5802.146794       0.000060
     5803.830528       0.000061
     5805.515239       0.000062
     5807.200929       0.000063
     5808.887598       0.000064
     5810.575247       0.000065
     5812.263877       0.000066
     5813.953488       0.000067
     5815.644083       0.000068
     5817.335660       0.000069
     5819.028222       0.000071
     5820.721769       0.000072
     5822.416303       0.000074
     5824.111823       0.000076
     5825.808331       0.000077
     5827.505828       0.000079
     5829.204314       0.000081
     5830.903790       0.000083
     5832.604258       0.000086
     5834.305718       0.000088
     5836.008170       0.000091
     5837.711617       0.000094
     5839.416058       0.000097
     5841.121495       0.000100
     5842.827929       0.000103
     5844.535359       0.000106
     5846.243788       0.000110
     5847.953216       0.000114
     5849.663644       0.000118
     5851.375073       0.000123
     5853.087504       0.000128
     5854.800937       0.000133
     5856.515373       0.000138
     5858.230814       0.000144
     5859.947260       0.000150
     5861.664713       0.000156
     5863.383172       0.000163
     5865.102639       0.000170
     5866.823115       0.000178
     5868.544601       0.000186
     5870.267097       0.000195
     5871.990605       0.000205
     5873.715125       0.000215
     5875.440658       0.000226
     5877.167205       0.000237
     5878.894768       0.000249
     5880.623346       0.000262
     5882.352941       0.000277
     5884.083554       0.000292
     5885.815185       0.000308
     5887.547836       0.000325
     5889.281508       0.000343
     5891.016200       0.000363
     5892.751915       0.000385
     5894.488653       0.000408
     5896.226415       0.000432
     5897.965202       0.000459
     5899.705015       0.000487
     5901.445854       0.000518
     5903.187721       0.000551
     5904.930617       0.000587
     5906.674542       0.000626
     5908.419498       0.000668
     5910.165485       0.000713
     5911.912504       0.000762
     5913.660556       0.000815
     5915.409642       0.000872
     5917.159763       0.000934
     5918.910920       0.001002
     5920.663114       0.001076
     5922.416346       0.001155
     5924.170616       0.001243
     5925.925926       0.001337
     5927.682276       0.001441
     5929.439668       0.001554
     5931.198102       0.001677
     5932.957579       0.001812
     5934.718101       0.001960
     5936.479668       0.002123
     5938.242280       0.002301
     5940.005940       0.002496
     5941.770648       0.002711
     5943.536404       0.002948
     5945.303210       0.003209
     5947.071067       0.003497
     5948.839976       0.003816
     5950.609938       0.004168
     5952.380952       0.004559
     5954.153022       0.004992
     5955.926147       0.005473
     5957.700328       0.006009
     5959.475566       0.006605
     5961.251863       0.007271
     5963.029219       0.008015
     5964.807635       0.008847
     5966.587112       0.009779
     5968.367651       0.010826
     5970.149254       0.012002
     5971.931920       0.013326
     5973.715651       0.014819
     5975.500448       0.016504
     5977.286312       0.018409
     5979.073244       0.020567
     5980.861244       0.023014
     5982.650314       0.025790
     5984.440455       0.028947
     5986.231667       0.032538
     5988.023952       0.036625
     5989.817311       0.041284
     5991.611744       0.046593
     5993.407252       0.052642
     5995.203837       0.059534
     5997.001499       0.067379
     5998.800240       0.076296
     6000.600060       0.086408
     6002.400960       0.097850
     6004.202942       0.110746
     6006.006006       0.125217
     6007.810153       0.141376
     6009.615385       0.159307
     6011.421701       0.179060
     6013.229104       0.200662
     6015.037594       0.224083
     6016.847172       0.249240
     6018.657839       0.276023
     6020.469597       0.304261
     6022.282445       0.333746
     6024.096386       0.364240
     6025.911419       0.395499
     6027.727547       0.427271
     6029.544769       0.459296
     6031.363088       0.491353
     6033.182504       0.523217
     6035.003018       0.554684
     6036.824630       0.585600
     6038.647343       0.615809
     6040.471157       0.645189
     6042.296073       0.673631
     6044.122091       0.701063
     6045.949214       0.727404
     6047.777442       0.752598
     6049.606776       0.776601
     6051.437216       0.799367
     6053.268765       0.820852
     6055.101423       0.841048
     6056.935191       0.859914
     6058.770070       0.877438
     6060.606061       0.893596
     6062.443165       0.908407
     6064.281383       0.921867
     6066.120716       0.933993
     6067.961165       0.944815
     6069.802731       0.954391
     6071.645416       0.962753
     6073.489220       0.969997
     6075.334143       0.976174
     6077.180188       0.981394
     6079.027356       0.985730
     6080.875646       0.989285
     6082.725061       0.992145
     6084.575601       0.994423
     6086.427267       0.996171
     6088.280061       0.997495
     6090.133983       0.998460
     6091.989034       0.999144
     6093.845216       0.999587
     6095.702530       0.999857
     6097.560976       0.999981
     6099.420555       1.000000
     6101.281269       0.999943
     6103.143119       0.999833
     6105.006105       0.999675
     6106.870229       0.999494
     6108.735492       0.999300
     6110.601894       0.999092
     6112.469438       0.998879
     6114.338123       0.998660
     6116.207951       0.998441
     6118.078923       0.998217
     6119.951040       0.998005
     6121.824304       0.997796
     6123.698714       0.997576
     6125.574273       0.997358
     6127.450980       0.997132
     6129.328838       0.996926
     6131.207848       0.996706
     6133.088010       0.996491
     6134.969325       0.996275
     6136.851795       0.996074
     6138.735421       0.995861
     6140.620203       0.995655
     6142.506143       0.995447
     6144.393241       0.995250
     6146.281500       0.995050
     6148.170919       0.994850
     6150.061501       0.994650
     6151.953245       0.994463
     6153.846154       0.994253
     6155.740228       0.994062
     6157.635468       0.993861
     6159.531876       0.993665
     6161.429452       0.993461
     6163.328197       0.993267
     6165.228113       0.993056
     6167.129201       0.992859
     6169.031462       0.992645
     6170.934897       0.992450
     6172.839506       0.992229
     6174.745292       0.992049
     6176.652254       0.991840
     6178.560395       0.991652
     6180.469716       0.991457
     6182.380216       0.991280
     6184.291899       0.991090
     6186.204763       0.990920
     6188.118812       0.990747
     6190.034045       0.990585
     6191.950464       0.990434
     6193.868071       0.990294
     6195.786865       0.990161
     6197.706848       0.990046
     6199.628022       0.989931
     6201.550388       0.989827
     6203.473945       0.989738
     6205.398697       0.989652
     6207.324643       0.989581
     6209.251785       0.989521
     6211.180124       0.989465
     6213.109661       0.989413
     6215.040398       0.989370
     6216.972334       0.989320
     6218.905473       0.989277
     6220.839813       0.989242
     6222.775358       0.989206
     6224.712107       0.989157
     6226.650062       0.989116
     6228.589225       0.989056
     6230.529595       0.989001
     6232.471175       0.988943
     6234.413965       0.988882
     6236.357967       0.988807
     6238.303182       0.988730
     6240.249610       0.988643
     6242.197253       0.988555
     6244.146113       0.988467
     6246.096190       0.988381
     6248.047485       0.988288
     6250.000000       0.988194
     6251.953736       0.988088
     6253.908693       0.987984
     6255.864873       0.987889
     6257.822278       0.987808
     6259.780908       0.987726
     6261.740764       0.987658
     6263.701848       0.987597
     6265.664160       0.987549
     6267.627703       0.987513
     6269.592476       0.987487
     6271.558482       0.987476
     6273.525721       0.987467
     6275.494195       0.987460
     6277.463905       0.987465
     6279.434851       0.987471
     6281.407035       0.987481
     6283.380459       0.987491
     6285.355123       0.987492
     6287.331028       0.987480
     6289.308176       0.987460
     6291.286568       0.987448
     6293.266205       0.987417
     6295.247088       0.987374
     6297.229219       0.987322
     6299.212598       0.987261
     6301.197227       0.987193
     6303.183107       0.987124
     6305.170240       0.987053
     6307.158625       0.986977
     6309.148265       0.986890
     6311.139161       0.986791
     6313.131313       0.986666
     6315.124724       0.986478
     6317.119394       0.986240
     6319.115324       0.985910
     6321.112516       0.985470
     6323.110971       0.984829
     6325.110689       0.983932
     6327.111674       0.982672
     6329.113924       0.980923
     6331.117442       0.978541
     6333.122229       0.975344
     6335.128286       0.971143
     6337.135615       0.965743
     6339.144216       0.958911
     6341.154090       0.950456
     6343.165239       0.940177
     6345.177665       0.927926
     6347.191368       0.913584
     6349.206349       0.897100
     6351.222610       0.878484
     6353.240152       0.857777
     6355.258977       0.835091
     6357.279085       0.810595
     6359.300477       0.784447
     6361.323155       0.756876
     6363.347121       0.728096
     6365.372374       0.698317
     6367.398918       0.667754
     6369.426752       0.636621
     6371.455878       0.605117
     6373.486297       0.573400
     6375.518011       0.541642
     6377.551020       0.510010
     6379.585327       0.478625
     6381.620932       0.447632
     6383.657836       0.417157
     6385.696041       0.387308
     6387.735548       0.358218
     6389.776358       0.329999
     6391.818472       0.302772
     6393.861893       0.276640
     6395.906620       0.251704
     6397.952655       0.228070
     6400.000000       0.205800
     6402.048656       0.184966
     6404.098623       0.165612
     6406.149904       0.147751
     6408.202499       0.131382
     6410.256410       0.116485
     6412.311638       0.103003
     6414.368185       0.090882
     6416.426051       0.080042
     6418.485237       0.070400
     6420.545746       0.061856
     6422.607579       0.054315
     6424.670736       0.047683
     6426.735219       0.041862
     6428.801029       0.036765
     6430.868167       0.032309
     6432.936636       0.028415
     6435.006435       0.025015
     6437.077567       0.022047
     6439.150032       0.019456
     6441.223833       0.017191
     6443.298969       0.015210
     6445.375443       0.013477
     6447.453256       0.011958
     6449.532409       0.010625
     6451.612903       0.009454
     6453.694740       0.008424
     6455.777921       0.007516
     6457.862448       0.006715
     6459.948320       0.006007
     6462.035541       0.005380
     6464.124111       0.004825
     6466.214032       0.004332
     6468.305304       0.003893
     6470.397929       0.003503
     6472.491909       0.003155
     6474.587245       0.002844
     6476.683938       0.002567
     6478.781989       0.002318
     6480.881400       0.002096
     6482.982172       0.001896
     6485.084306       0.001717
     6487.187804       0.001556
     6489.292667       0.001411
     6491.398896       0.001280
     6493.506494       0.001163
     6495.615460       0.001057
     6497.725796       0.000961
     6499.837504       0.000874
     6501.950585       0.000796
     6504.065041       0.000725
     6506.180872       0.000661
     6508.298080       0.000603
     6510.416667       0.000550
     6512.536633       0.000502
     6514.657980       0.000459
     6516.780710       0.000420
     6518.904824       0.000384
     6521.030323       0.000351
     6523.157208       0.000322
     6525.285481       0.000295
     6527.415144       0.000270
     6529.546197       0.000248
     6531.678641       0.000228
     6533.812480       0.000209
     6535.947712       0.000192
     6538.084341       0.000177
     6540.222368       0.000163
     6542.361793       0.000150
     6544.502618       0.000138
     6546.644845       0.000128
     6548.788474       0.000118
     6550.933508       0.000109
     6553.079948       0.000101
     6555.227794       0.000093
     6557.377049       0.000087
     6559.527714       0.000080
     6561.679790       0.000075
     6563.833279       0.000069
     6565.988181       0.000065
     6568.144499       0.000060
     6570.302234       0.000056
     6572.461387       0.000052
     6574.621959       0.000049
     6576.783953       0.000046
     6578.947368       0.000043
     6581.112208       0.000040
     6583.278473       0.000038
     6585.446164       0.000036
     6587.615283       0.000034
     6589.785832       0.000032
     6591.957811       0.000030
     6594.131223       0.000028
     6596.306069       0.000027
     6598.482349       0.000026
     6600.660066       0.000024
     6602.839221       0.000023
     6605.019815       0.000022
     6607.201850       0.000021
     6609.385327       0.000020
     6611.570248       0.000019
     6613.756614       0.000018
     6615.944426       0.000018
     6618.133686       0.000017
     6620.324396       0.000016
     6622.516556       0.000016
     6624.710169       0.000015
     6626.905235       0.000015
     6629.101757       0.000014
     6631.299735       0.000014
     6633.499171       0.000014
     6635.700066       0.000013
     6637.902423       0.000013
     6640.106242       0.000013
     6642.311524       0.000013
     6644.518272       0.000012
     6646.726487       0.000012
