  27 , eos_02_modis_27.flt
Number of data points:
581
Wavenumber (cm-1)   Filter response
     1395.000000       0.000000
     1395.250000       0.000000
     1395.500000       0.000000
     1395.750000       0.000000
     1396.000000       0.009991
     1396.250000       0.010081
     1396.500000       0.010085
     1396.750000       0.010219
     1397.000000       0.010354
     1397.250000       0.010491
     1397.500000       0.010625
     1397.750000       0.010757
     1398.000000       0.010886
     1398.250000       0.011013
     1398.500000       0.010760
     1398.750000       0.010700
     1399.000000       0.010835
     1399.250000       0.010976
     1399.500000       0.011124
     1399.750000       0.011281
     1400.000000       0.011448
     1400.250000       0.011300
     1400.500000       0.011221
     1400.750000       0.011049
     1401.000000       0.011226
     1401.250000       0.011443
     1401.500000       0.011704
     1401.750000       0.011789
     1402.000000       0.012089
     1402.250000       0.012400
     1402.500000       0.012720
     1402.750000       0.013047
     1403.000000       0.013379
     1403.250000       0.013713
     1403.500000       0.013649
     1403.750000       0.013965
     1404.000000       0.014276
     1404.250000       0.014582
     1404.500000       0.014882
     1404.750000       0.015175
     1405.000000       0.015459
     1405.250000       0.015738
     1405.500000       0.016012
     1405.750000       0.016286
     1406.000000       0.016562
     1406.250000       0.016842
     1406.500000       0.017130
     1406.750000       0.017428
     1407.000000       0.017737
     1407.250000       0.018060
     1407.500000       0.018400
     1407.750000       0.018758
     1408.000000       0.019133
     1408.250000       0.019524
     1408.500000       0.019926
     1408.750000       0.020338
     1409.000000       0.020756
     1409.250000       0.021177
     1409.500000       0.021600
     1409.750000       0.022021
     1410.000000       0.022438
     1410.250000       0.022849
     1410.500000       0.023251
     1410.750000       0.023644
     1411.000000       0.024032
     1411.250000       0.024415
     1411.500000       0.024795
     1411.750000       0.025176
     1412.000000       0.025557
     1412.250000       0.025942
     1412.500000       0.026331
     1412.750000       0.026726
     1413.000000       0.027128
     1413.250000       0.027539
     1413.500000       0.027960
     1413.750000       0.028392
     1414.000000       0.028832
     1414.250000       0.029280
     1414.500000       0.029736
     1414.750000       0.030201
     1415.000000       0.030676
     1415.250000       0.031162
     1415.500000       0.031659
     1415.750000       0.032167
     1416.000000       0.032685
     1416.250000       0.033213
     1416.500000       0.033751
     1416.750000       0.034299
     1417.000000       0.034859
     1417.250000       0.035431
     1417.500000       0.036013
     1417.750000       0.036606
     1418.000000       0.037210
     1418.250000       0.037824
     1418.500000       0.038449
     1418.750000       0.039085
     1419.000000       0.039731
     1419.250000       0.040388
     1419.500000       0.041053
     1419.750000       0.041727
     1420.000000       0.042412
     1420.250000       0.043108
     1420.500000       0.043813
     1420.750000       0.044526
     1421.000000       0.045246
     1421.250000       0.045971
     1421.500000       0.046700
     1421.750000       0.047432
     1422.000000       0.048166
     1422.250000       0.048902
     1422.500000       0.049638
     1422.750000       0.050374
     1423.000000       0.051108
     1423.250000       0.051844
     1423.500000       0.052585
     1423.750000       0.053334
     1424.000000       0.054095
     1424.250000       0.054868
     1424.500000       0.055657
     1424.750000       0.056461
     1425.000000       0.057281
     1425.250000       0.058121
     1425.500000       0.058980
     1425.750000       0.059860
     1426.000000       0.060755
     1426.250000       0.061666
     1426.500000       0.062596
     1426.750000       0.063546
     1427.000000       0.064523
     1427.250000       0.065527
     1427.500000       0.066564
     1427.750000       0.067630
     1428.000000       0.068728
     1428.250000       0.069860
     1428.500000       0.071026
     1428.750000       0.072229
     1429.000000       0.073470
     1429.250000       0.074748
     1429.500000       0.076062
     1429.750000       0.077412
     1430.000000       0.078797
     1430.250000       0.080216
     1430.500000       0.081668
     1430.750000       0.083148
     1431.000000       0.084653
     1431.250000       0.086183
     1431.500000       0.087736
     1431.750000       0.089313
     1432.000000       0.090914
     1432.250000       0.092544
     1432.500000       0.094204
     1432.750000       0.095899
     1433.000000       0.097630
     1433.250000       0.099402
     1433.500000       0.101214
     1433.750000       0.103065
     1434.000000       0.104952
     1434.250000       0.106876
     1434.500000       0.108839
     1434.750000       0.110843
     1435.000000       0.112889
     1435.250000       0.114972
     1435.500000       0.117097
     1435.750000       0.119267
     1436.000000       0.121490
     1436.250000       0.123772
     1436.500000       0.126118
     1436.750000       0.128530
     1437.000000       0.131006
     1437.250000       0.133548
     1437.500000       0.136161
     1437.750000       0.138851
     1438.000000       0.141622
     1438.250000       0.144471
     1438.500000       0.147398
     1438.750000       0.150405
     1439.000000       0.153494
     1439.250000       0.156665
     1439.500000       0.159918
     1439.750000       0.163250
     1440.000000       0.166657
     1440.250000       0.170136
     1440.500000       0.173689
     1440.750000       0.177314
     1441.000000       0.181013
     1441.250000       0.184788
     1441.500000       0.188638
     1441.750000       0.192564
     1442.000000       0.196570
     1442.250000       0.200660
     1442.500000       0.204835
     1442.750000       0.209094
     1443.000000       0.213433
     1443.250000       0.217848
     1443.500000       0.222342
     1443.750000       0.226914
     1444.000000       0.231566
     1444.250000       0.236301
     1444.500000       0.241107
     1444.750000       0.245991
     1445.000000       0.250960
     1445.250000       0.256029
     1445.500000       0.261211
     1445.750000       0.266522
     1446.000000       0.271974
     1446.250000       0.277572
     1446.500000       0.283317
     1446.750000       0.289218
     1447.000000       0.295278
     1447.250000       0.301502
     1447.500000       0.307885
     1447.750000       0.314415
     1448.000000       0.321087
     1448.250000       0.327901
     1448.500000       0.334854
     1448.750000       0.341946
     1449.000000       0.349185
     1449.250000       0.356580
     1449.500000       0.364142
     1449.750000       0.371868
     1450.000000       0.379750
     1450.250000       0.387782
     1450.500000       0.395955
     1450.750000       0.404257
     1451.000000       0.412676
     1451.250000       0.421199
     1451.500000       0.429809
     1451.750000       0.438486
     1452.000000       0.447213
     1452.250000       0.455978
     1452.500000       0.464777
     1452.750000       0.473614
     1453.000000       0.482487
     1453.250000       0.491395
     1453.500000       0.500338
     1453.750000       0.509320
     1454.000000       0.518347
     1454.250000       0.527426
     1454.500000       0.536567
     1454.750000       0.545786
     1455.000000       0.555096
     1455.250000       0.564514
     1455.500000       0.574061
     1455.750000       0.583758
     1456.000000       0.593614
     1456.250000       0.603631
     1456.500000       0.613822
     1456.750000       0.624177
     1457.000000       0.634711
     1457.250000       0.645445
     1457.500000       0.656336
     1457.750000       0.667333
     1458.000000       0.678377
     1458.250000       0.689411
     1458.500000       0.700389
     1458.750000       0.711273
     1459.000000       0.722068
     1459.250000       0.732743
     1459.500000       0.743255
     1459.750000       0.753585
     1460.000000       0.763703
     1460.250000       0.773640
     1460.500000       0.783415
     1460.750000       0.793031
     1461.000000       0.802474
     1461.250000       0.811724
     1461.500000       0.820760
     1461.750000       0.829563
     1462.000000       0.838122
     1462.250000       0.846461
     1462.500000       0.854582
     1462.750000       0.862481
     1463.000000       0.870160
     1463.250000       0.877623
     1463.500000       0.884886
     1463.750000       0.891952
     1464.000000       0.898824
     1464.250000       0.905501
     1464.500000       0.911976
     1464.750000       0.918245
     1465.000000       0.924302
     1465.250000       0.930143
     1465.500000       0.935768
     1465.750000       0.941167
     1466.000000       0.946329
     1466.250000       0.951248
     1466.500000       0.955913
     1466.750000       0.960316
     1467.000000       0.964459
     1467.250000       0.968349
     1467.500000       0.971989
     1467.750000       0.975381
     1468.000000       0.978528
     1468.250000       0.981429
     1468.500000       0.984082
     1468.750000       0.986485
     1469.000000       0.988653
     1469.250000       0.990594
     1469.500000       0.992321
     1469.750000       0.993848
     1470.000000       0.995152
     1470.250000       0.996244
     1470.500000       0.997139
     1470.750000       0.997865
     1471.000000       0.998447
     1471.250000       0.998913
     1471.500000       0.999285
     1471.750000       0.999577
     1472.000000       0.999785
     1472.250000       0.999922
     1472.500000       0.999992
     1472.750000       1.000000
     1473.000000       0.999945
     1473.250000       0.999822
     1473.500000       0.999618
     1473.750000       0.999315
     1474.000000       0.998897
     1474.250000       0.998346
     1474.500000       0.997647
     1474.750000       0.996796
     1475.000000       0.995786
     1475.250000       0.994619
     1475.500000       0.993279
     1475.750000       0.991760
     1476.000000       0.990056
     1476.250000       0.988160
     1476.500000       0.986088
     1476.750000       0.983836
     1477.000000       0.981400
     1477.250000       0.978770
     1477.500000       0.975936
     1477.750000       0.972886
     1478.000000       0.969607
     1478.250000       0.966092
     1478.500000       0.962343
     1478.750000       0.958358
     1479.000000       0.954135
     1479.250000       0.949676
     1479.500000       0.944982
     1479.750000       0.940050
     1480.000000       0.934889
     1480.250000       0.929513
     1480.500000       0.923938
     1480.750000       0.918183
     1481.000000       0.912263
     1481.250000       0.906187
     1481.500000       0.899961
     1481.750000       0.893575
     1482.000000       0.887040
     1482.250000       0.880367
     1482.500000       0.873561
     1482.750000       0.866632
     1483.000000       0.859564
     1483.250000       0.852360
     1483.500000       0.845025
     1483.750000       0.837576
     1484.000000       0.830031
     1484.250000       0.822410
     1484.500000       0.814722
     1484.750000       0.806974
     1485.000000       0.799145
     1485.250000       0.791242
     1485.500000       0.783279
     1485.750000       0.775259
     1486.000000       0.767195
     1486.250000       0.759075
     1486.500000       0.750900
     1486.750000       0.742682
     1487.000000       0.734442
     1487.250000       0.726209
     1487.500000       0.718010
     1487.750000       0.709872
     1488.000000       0.701816
     1488.250000       0.693845
     1488.500000       0.685962
     1488.750000       0.678179
     1489.000000       0.670506
     1489.250000       0.662947
     1489.500000       0.655505
     1489.750000       0.648173
     1490.000000       0.640939
     1490.250000       0.633785
     1490.500000       0.626698
     1490.750000       0.619665
     1491.000000       0.612674
     1491.250000       0.605713
     1491.500000       0.598773
     1491.750000       0.591844
     1492.000000       0.584917
     1492.250000       0.577983
     1492.500000       0.571035
     1492.750000       0.564069
     1493.000000       0.557090
     1493.250000       0.550107
     1493.500000       0.543129
     1493.750000       0.536164
     1494.000000       0.529220
     1494.250000       0.522307
     1494.500000       0.515427
     1494.750000       0.508586
     1495.000000       0.501786
     1495.250000       0.495037
     1495.500000       0.488346
     1495.750000       0.481719
     1496.000000       0.475161
     1496.250000       0.468676
     1496.500000       0.462261
     1496.750000       0.455913
     1497.000000       0.449633
     1497.250000       0.443421
     1497.500000       0.437276
     1497.750000       0.431200
     1498.000000       0.425193
     1498.250000       0.419253
     1498.500000       0.413374
     1498.750000       0.407550
     1499.000000       0.401779
     1499.250000       0.396058
     1499.500000       0.390380
     1499.750000       0.384751
     1500.000000       0.379168
     1500.250000       0.373629
     1500.500000       0.368126
     1500.750000       0.362653
     1501.000000       0.357202
     1501.250000       0.351766
     1501.500000       0.346340
     1501.750000       0.340919
     1502.000000       0.335504
     1502.250000       0.330093
     1502.500000       0.324685
     1502.750000       0.319282
     1503.000000       0.313878
     1503.250000       0.308470
     1503.500000       0.303072
     1503.750000       0.297699
     1504.000000       0.292368
     1504.250000       0.287096
     1504.500000       0.281899
     1504.750000       0.276788
     1505.000000       0.271773
     1505.250000       0.266861
     1505.500000       0.262063
     1505.750000       0.257386
     1506.000000       0.252835
     1506.250000       0.248414
     1506.500000       0.244118
     1506.750000       0.239937
     1507.000000       0.235860
     1507.250000       0.231878
     1507.500000       0.227983
     1507.750000       0.224164
     1508.000000       0.220416
     1508.250000       0.216735
     1508.500000       0.213117
     1508.750000       0.209557
     1509.000000       0.206045
     1509.250000       0.202577
     1509.500000       0.199148
     1509.750000       0.195755
     1510.000000       0.192407
     1510.250000       0.189101
     1510.500000       0.185837
     1510.750000       0.182608
     1511.000000       0.179409
     1511.250000       0.176234
     1511.500000       0.173082
     1511.750000       0.169948
     1512.000000       0.166839
     1512.250000       0.163755
     1512.500000       0.160695
     1512.750000       0.157658
     1513.000000       0.154647
     1513.250000       0.151660
     1513.500000       0.148695
     1513.750000       0.145757
     1514.000000       0.142846
     1514.250000       0.139964
     1514.500000       0.137115
     1514.750000       0.134298
     1515.000000       0.131517
     1515.250000       0.128771
     1515.500000       0.126064
     1515.750000       0.123396
     1516.000000       0.120767
     1516.250000       0.118178
     1516.500000       0.115629
     1516.750000       0.113118
     1517.000000       0.110646
     1517.250000       0.108211
     1517.500000       0.105812
     1517.750000       0.103450
     1518.000000       0.101124
     1518.250000       0.098834
     1518.500000       0.096581
     1518.750000       0.094366
     1519.000000       0.092186
     1519.250000       0.090044
     1519.500000       0.087937
     1519.750000       0.085866
     1520.000000       0.083829
     1520.250000       0.081825
     1520.500000       0.079856
     1520.750000       0.077921
     1521.000000       0.076021
     1521.250000       0.074156
     1521.500000       0.072327
     1521.750000       0.070535
     1522.000000       0.068782
     1522.250000       0.067069
     1522.500000       0.065397
     1522.750000       0.063765
     1523.000000       0.062176
     1523.250000       0.060628
     1523.500000       0.059122
     1523.750000       0.057658
     1524.000000       0.056236
     1524.250000       0.054852
     1524.500000       0.053505
     1524.750000       0.052189
     1525.000000       0.050903
     1525.250000       0.049644
     1525.500000       0.048408
     1525.750000       0.047197
     1526.000000       0.046007
     1526.250000       0.044837
     1526.500000       0.043686
     1526.750000       0.042552
     1527.000000       0.041435
     1527.250000       0.040340
     1527.500000       0.039265
     1527.750000       0.038211
     1528.000000       0.037178
     1528.250000       0.036164
     1528.500000       0.035169
     1528.750000       0.034192
     1529.000000       0.033232
     1529.250000       0.032289
     1529.500000       0.031365
     1529.750000       0.030458
     1530.000000       0.029570
     1530.250000       0.028700
     1530.500000       0.027849
     1530.750000       0.027019
     1531.000000       0.026211
     1531.250000       0.025423
     1531.500000       0.024655
     1531.750000       0.023908
     1532.000000       0.023180
     1532.250000       0.022471
     1532.500000       0.021781
     1532.750000       0.021109
     1533.000000       0.020455
     1533.250000       0.019818
     1533.500000       0.019197
     1533.750000       0.018591
     1534.000000       0.018000
     1534.250000       0.017427
     1534.500000       0.016870
     1534.750000       0.016329
     1535.000000       0.015803
     1535.250000       0.015288
     1535.500000       0.014784
     1535.750000       0.014291
     1536.000000       0.013808
     1536.250000       0.013339
     1536.500000       0.012884
     1536.750000       0.012443
     1537.000000       0.012018
     1537.250000       0.011609
     1537.500000       0.011218
     1537.750000       0.010873
     1538.000000       0.011244
     1538.250000       0.011178
     1538.500000       0.010833
     1538.750000       0.011145
     1539.000000       0.010821
     1539.250000       0.010513
     1539.500000       0.010219
     1539.750000       0.010085
     1540.000000       0.000000
