01 , goes_10_imager_02.flt
Number of data points:
2151
Wavenumber (cm-1)   Filter response
     2439.000000       0.004750
     2439.100000       0.004800
     2439.200000       0.004860
     2439.300000       0.004920
     2439.400000       0.004980
     2439.500000       0.005040
     2439.600000       0.005100
     2439.700000       0.005150
     2439.800000       0.005210
     2439.900000       0.005270
     2440.000000       0.005330
     2440.100000       0.005390
     2440.200000       0.005440
     2440.300000       0.005500
     2440.400000       0.005560
     2440.500000       0.005620
     2440.600000       0.005670
     2440.700000       0.005730
     2440.800000       0.005790
     2440.900000       0.005840
     2441.000000       0.005900
     2441.100000       0.005960
     2441.200000       0.006020
     2441.300000       0.006080
     2441.400000       0.006140
     2441.500000       0.006200
     2441.600000       0.006270
     2441.700000       0.006330
     2441.800000       0.006400
     2441.900000       0.006460
     2442.000000       0.006530
     2442.100000       0.006600
     2442.200000       0.006660
     2442.300000       0.006730
     2442.400000       0.006800
     2442.500000       0.006870
     2442.600000       0.006940
     2442.700000       0.007010
     2442.800000       0.007070
     2442.900000       0.007140
     2443.000000       0.007210
     2443.100000       0.007280
     2443.200000       0.007340
     2443.300000       0.007410
     2443.400000       0.007470
     2443.500000       0.007530
     2443.600000       0.007590
     2443.700000       0.007650
     2443.800000       0.007710
     2443.900000       0.007760
     2444.000000       0.007810
     2444.100000       0.007860
     2444.200000       0.007910
     2444.300000       0.007950
     2444.400000       0.007990
     2444.500000       0.008030
     2444.600000       0.008060
     2444.700000       0.008090
     2444.800000       0.008120
     2444.900000       0.008140
     2445.000000       0.008160
     2445.100000       0.008170
     2445.200000       0.008180
     2445.300000       0.008190
     2445.400000       0.008190
     2445.500000       0.008190
     2445.600000       0.008180
     2445.700000       0.008170
     2445.800000       0.008160
     2445.900000       0.008150
     2446.000000       0.008140
     2446.100000       0.008120
     2446.200000       0.008110
     2446.300000       0.008090
     2446.400000       0.008080
     2446.500000       0.008070
     2446.600000       0.008060
     2446.700000       0.008050
     2446.800000       0.008040
     2446.900000       0.008040
     2447.000000       0.008040
     2447.100000       0.008040
     2447.200000       0.008050
     2447.300000       0.008060
     2447.400000       0.008080
     2447.500000       0.008110
     2447.600000       0.008140
     2447.700000       0.008180
     2447.800000       0.008220
     2447.900000       0.008280
     2448.000000       0.008340
     2448.100000       0.008410
     2448.200000       0.008490
     2448.300000       0.008590
     2448.400000       0.008700
     2448.500000       0.008820
     2448.600000       0.008950
     2448.700000       0.009100
     2448.800000       0.009260
     2448.900000       0.009430
     2449.000000       0.009610
     2449.100000       0.009800
     2449.200000       0.010010
     2449.300000       0.010230
     2449.400000       0.010460
     2449.500000       0.010710
     2449.600000       0.010970
     2449.700000       0.011230
     2449.800000       0.011510
     2449.900000       0.011780
     2450.000000       0.012070
     2450.100000       0.012350
     2450.200000       0.012630
     2450.300000       0.012920
     2450.400000       0.013200
     2450.500000       0.013470
     2450.600000       0.013740
     2450.700000       0.014010
     2450.800000       0.014260
     2450.900000       0.014510
     2451.000000       0.014740
     2451.100000       0.014960
     2451.200000       0.015170
     2451.300000       0.015350
     2451.400000       0.015520
     2451.500000       0.015670
     2451.600000       0.015790
     2451.700000       0.015900
     2451.800000       0.015990
     2451.900000       0.016060
     2452.000000       0.016110
     2452.100000       0.016130
     2452.200000       0.016140
     2452.300000       0.016130
     2452.400000       0.016090
     2452.500000       0.016030
     2452.600000       0.015960
     2452.700000       0.015870
     2452.800000       0.015780
     2452.900000       0.015680
     2453.000000       0.015580
     2453.100000       0.015480
     2453.200000       0.015380
     2453.300000       0.015290
     2453.400000       0.015220
     2453.500000       0.015150
     2453.600000       0.015100
     2453.700000       0.015070
     2453.800000       0.015050
     2453.900000       0.015050
     2454.000000       0.015080
     2454.100000       0.015130
     2454.200000       0.015200
     2454.300000       0.015310
     2454.400000       0.015450
     2454.500000       0.015620
     2454.600000       0.015840
     2454.700000       0.016100
     2454.800000       0.016410
     2454.900000       0.016780
     2455.000000       0.017210
     2455.100000       0.017710
     2455.200000       0.018290
     2455.300000       0.018950
     2455.400000       0.019700
     2455.500000       0.020540
     2455.600000       0.021440
     2455.700000       0.022380
     2455.800000       0.023350
     2455.900000       0.024340
     2456.000000       0.025320
     2456.100000       0.026290
     2456.200000       0.027220
     2456.300000       0.028110
     2456.400000       0.028930
     2456.500000       0.029690
     2456.600000       0.030400
     2456.700000       0.031080
     2456.800000       0.031720
     2456.900000       0.032350
     2457.000000       0.032960
     2457.100000       0.033570
     2457.200000       0.034180
     2457.300000       0.034800
     2457.400000       0.035440
     2457.500000       0.036110
     2457.600000       0.036800
     2457.700000       0.037510
     2457.800000       0.038250
     2457.900000       0.039010
     2458.000000       0.039800
     2458.100000       0.040620
     2458.200000       0.041480
     2458.300000       0.042370
     2458.400000       0.043290
     2458.500000       0.044250
     2458.600000       0.045240
     2458.700000       0.046260
     2458.800000       0.047300
     2458.900000       0.048360
     2459.000000       0.049440
     2459.100000       0.050530
     2459.200000       0.051640
     2459.300000       0.052760
     2459.400000       0.053890
     2459.500000       0.055020
     2459.600000       0.056170
     2459.700000       0.057330
     2459.800000       0.058500
     2459.900000       0.059690
     2460.000000       0.060890
     2460.100000       0.062120
     2460.200000       0.063360
     2460.300000       0.064620
     2460.400000       0.065910
     2460.500000       0.067220
     2460.600000       0.068570
     2460.700000       0.069930
     2460.800000       0.071320
     2460.900000       0.072730
     2461.000000       0.074180
     2461.100000       0.075650
     2461.200000       0.077150
     2461.300000       0.078680
     2461.400000       0.080250
     2461.500000       0.081850
     2461.600000       0.083490
     2461.700000       0.085150
     2461.800000       0.086860
     2461.900000       0.088610
     2462.000000       0.090400
     2462.100000       0.092240
     2462.200000       0.094120
     2462.300000       0.096050
     2462.400000       0.098030
     2462.500000       0.100070
     2462.600000       0.102160
     2462.700000       0.104300
     2462.800000       0.106480
     2462.900000       0.108710
     2463.000000       0.110980
     2463.100000       0.113300
     2463.200000       0.115660
     2463.300000       0.118070
     2463.400000       0.120520
     2463.500000       0.123010
     2463.600000       0.125550
     2463.700000       0.128120
     2463.800000       0.130730
     2463.900000       0.133360
     2464.000000       0.136040
     2464.100000       0.138740
     2464.200000       0.141460
     2464.300000       0.144220
     2464.400000       0.147000
     2464.500000       0.149810
     2464.600000       0.152640
     2464.700000       0.155490
     2464.800000       0.158370
     2464.900000       0.161260
     2465.000000       0.164180
     2465.100000       0.167110
     2465.200000       0.170070
     2465.300000       0.173040
     2465.400000       0.176030
     2465.500000       0.179050
     2465.600000       0.182090
     2465.700000       0.185140
     2465.800000       0.188210
     2465.900000       0.191300
     2466.000000       0.194420
     2466.100000       0.197570
     2466.200000       0.200730
     2466.300000       0.203930
     2466.400000       0.207140
     2466.500000       0.210390
     2466.600000       0.213670
     2466.700000       0.216980
     2466.800000       0.220320
     2466.900000       0.223680
     2467.000000       0.227090
     2467.100000       0.230530
     2467.200000       0.234000
     2467.300000       0.237530
     2467.400000       0.241080
     2467.500000       0.244690
     2467.600000       0.248340
     2467.700000       0.252020
     2467.800000       0.255740
     2467.900000       0.259500
     2468.000000       0.263310
     2468.100000       0.267150
     2468.200000       0.271030
     2468.300000       0.274960
     2468.400000       0.278920
     2468.500000       0.282940
     2468.600000       0.286990
     2468.700000       0.291080
     2468.800000       0.295210
     2468.900000       0.299370
     2469.000000       0.303580
     2469.100000       0.307820
     2469.200000       0.312090
     2469.300000       0.316410
     2469.400000       0.320760
     2469.500000       0.325150
     2469.600000       0.329590
     2469.700000       0.334050
     2469.800000       0.338570
     2469.900000       0.343110
     2470.000000       0.347700
     2470.100000       0.352330
     2470.200000       0.357000
     2470.300000       0.361720
     2470.400000       0.366480
     2470.500000       0.371300
     2470.600000       0.376150
     2470.700000       0.381010
     2470.800000       0.385920
     2470.900000       0.390830
     2471.000000       0.395760
     2471.100000       0.400700
     2471.200000       0.405630
     2471.300000       0.410570
     2471.400000       0.415490
     2471.500000       0.420400
     2471.600000       0.425290
     2471.700000       0.430140
     2471.800000       0.434970
     2471.900000       0.439740
     2472.000000       0.444470
     2472.100000       0.449140
     2472.200000       0.453730
     2472.300000       0.458260
     2472.400000       0.462690
     2472.500000       0.467050
     2472.600000       0.471340
     2472.700000       0.475550
     2472.800000       0.479720
     2472.900000       0.483830
     2473.000000       0.487900
     2473.100000       0.491940
     2473.200000       0.495950
     2473.300000       0.499930
     2473.400000       0.503890
     2473.500000       0.507840
     2473.600000       0.511800
     2473.700000       0.515750
     2473.800000       0.519730
     2473.900000       0.523730
     2474.000000       0.527780
     2474.100000       0.531880
     2474.200000       0.536020
     2474.300000       0.540250
     2474.400000       0.544550
     2474.500000       0.548940
     2474.600000       0.553410
     2474.700000       0.557960
     2474.800000       0.562610
     2474.900000       0.567330
     2475.000000       0.572150
     2475.100000       0.577070
     2475.200000       0.582070
     2475.300000       0.587200
     2475.400000       0.592420
     2475.500000       0.597750
     2475.600000       0.603170
     2475.700000       0.608650
     2475.800000       0.614190
     2475.900000       0.619770
     2476.000000       0.625390
     2476.100000       0.631030
     2476.200000       0.636660
     2476.300000       0.642300
     2476.400000       0.647910
     2476.500000       0.653510
     2476.600000       0.659090
     2476.700000       0.664620
     2476.800000       0.670130
     2476.900000       0.675580
     2477.000000       0.680990
     2477.100000       0.686350
     2477.200000       0.691640
     2477.300000       0.696860
     2477.400000       0.702000
     2477.500000       0.707080
     2477.600000       0.712080
     2477.700000       0.717010
     2477.800000       0.721900
     2477.900000       0.726710
     2478.000000       0.731480
     2478.100000       0.736200
     2478.200000       0.740850
     2478.300000       0.745470
     2478.400000       0.750030
     2478.500000       0.754550
     2478.600000       0.759030
     2478.700000       0.763440
     2478.800000       0.767820
     2478.900000       0.772140
     2479.000000       0.776420
     2479.100000       0.780650
     2479.200000       0.784810
     2479.300000       0.788920
     2479.400000       0.792960
     2479.500000       0.796950
     2479.600000       0.800870
     2479.700000       0.804710
     2479.800000       0.808490
     2479.900000       0.812180
     2480.000000       0.815790
     2480.100000       0.819310
     2480.200000       0.822730
     2480.300000       0.826040
     2480.400000       0.829230
     2480.500000       0.832320
     2480.600000       0.835290
     2480.700000       0.838150
     2480.800000       0.840900
     2480.900000       0.843530
     2481.000000       0.846050
     2481.100000       0.848460
     2481.200000       0.850730
     2481.300000       0.852880
     2481.400000       0.854900
     2481.500000       0.856790
     2481.600000       0.858560
     2481.700000       0.860220
     2481.800000       0.861780
     2481.900000       0.863250
     2482.000000       0.864620
     2482.100000       0.865920
     2482.200000       0.867120
     2482.300000       0.868250
     2482.400000       0.869300
     2482.500000       0.870280
     2482.600000       0.871190
     2482.700000       0.872040
     2482.800000       0.872830
     2482.900000       0.873570
     2483.000000       0.874260
     2483.100000       0.874890
     2483.200000       0.875480
     2483.300000       0.876020
     2483.400000       0.876510
     2483.500000       0.876960
     2483.600000       0.877380
     2483.700000       0.877760
     2483.800000       0.878110
     2483.900000       0.878440
     2484.000000       0.878740
     2484.100000       0.879020
     2484.200000       0.879280
     2484.300000       0.879520
     2484.400000       0.879750
     2484.500000       0.879970
     2484.600000       0.880170
     2484.700000       0.880380
     2484.800000       0.880580
     2484.900000       0.880770
     2485.000000       0.880970
     2485.100000       0.881170
     2485.200000       0.881380
     2485.300000       0.881600
     2485.400000       0.881830
     2485.500000       0.882080
     2485.600000       0.882340
     2485.700000       0.882620
     2485.800000       0.882930
     2485.900000       0.883260
     2486.000000       0.883630
     2486.100000       0.884030
     2486.200000       0.884470
     2486.300000       0.884950
     2486.400000       0.885480
     2486.500000       0.886060
     2486.600000       0.886690
     2486.700000       0.887370
     2486.800000       0.888090
     2486.900000       0.888870
     2487.000000       0.889690
     2487.100000       0.890560
     2487.200000       0.891490
     2487.300000       0.892480
     2487.400000       0.893520
     2487.500000       0.894620
     2487.600000       0.895770
     2487.700000       0.896960
     2487.800000       0.898180
     2487.900000       0.899440
     2488.000000       0.900720
     2488.100000       0.902030
     2488.200000       0.903350
     2488.300000       0.904690
     2488.400000       0.906030
     2488.500000       0.907380
     2488.600000       0.908710
     2488.700000       0.910020
     2488.800000       0.911300
     2488.900000       0.912530
     2489.000000       0.913710
     2489.100000       0.914810
     2489.200000       0.915840
     2489.300000       0.916760
     2489.400000       0.917580
     2489.500000       0.918300
     2489.600000       0.918910
     2489.700000       0.919440
     2489.800000       0.919880
     2489.900000       0.920240
     2490.000000       0.920530
     2490.100000       0.920750
     2490.200000       0.920900
     2490.300000       0.920990
     2490.400000       0.921010
     2490.500000       0.920990
     2490.600000       0.920920
     2490.700000       0.920810
     2490.800000       0.920690
     2490.900000       0.920560
     2491.000000       0.920420
     2491.100000       0.920290
     2491.200000       0.920190
     2491.300000       0.920110
     2491.400000       0.920060
     2491.500000       0.920060
     2491.600000       0.920080
     2491.700000       0.920140
     2491.800000       0.920220
     2491.900000       0.920320
     2492.000000       0.920450
     2492.100000       0.920590
     2492.200000       0.920750
     2492.300000       0.920920
     2492.400000       0.921100
     2492.500000       0.921290
     2492.600000       0.921490
     2492.700000       0.921690
     2492.800000       0.921900
     2492.900000       0.922100
     2493.000000       0.922310
     2493.100000       0.922510
     2493.200000       0.922710
     2493.300000       0.922900
     2493.400000       0.923090
     2493.500000       0.923260
     2493.600000       0.923430
     2493.700000       0.923580
     2493.800000       0.923740
     2493.900000       0.923880
     2494.000000       0.924010
     2494.100000       0.924140
     2494.200000       0.924260
     2494.300000       0.924370
     2494.400000       0.924470
     2494.500000       0.924570
     2494.600000       0.924660
     2494.700000       0.924750
     2494.800000       0.924830
     2494.900000       0.924910
     2495.000000       0.925000
     2495.100000       0.925080
     2495.200000       0.925170
     2495.300000       0.925250
     2495.400000       0.925350
     2495.500000       0.925450
     2495.600000       0.925560
     2495.700000       0.925670
     2495.800000       0.925800
     2495.900000       0.925930
     2496.000000       0.926080
     2496.100000       0.926240
     2496.200000       0.926410
     2496.300000       0.926600
     2496.400000       0.926810
     2496.500000       0.927030
     2496.600000       0.927270
     2496.700000       0.927520
     2496.800000       0.927790
     2496.900000       0.928060
     2497.000000       0.928350
     2497.100000       0.928650
     2497.200000       0.928960
     2497.300000       0.929280
     2497.400000       0.929600
     2497.500000       0.929940
     2497.600000       0.930280
     2497.700000       0.930630
     2497.800000       0.930980
     2497.900000       0.931340
     2498.000000       0.931700
     2498.100000       0.932060
     2498.200000       0.932420
     2498.300000       0.932790
     2498.400000       0.933150
     2498.500000       0.933510
     2498.600000       0.933870
     2498.700000       0.934230
     2498.800000       0.934600
     2498.900000       0.934950
     2499.000000       0.935310
     2499.100000       0.935670
     2499.200000       0.936030
     2499.300000       0.936390
     2499.400000       0.936750
     2499.500000       0.937100
     2499.600000       0.937460
     2499.700000       0.937820
     2499.800000       0.938180
     2499.900000       0.938530
     2500.000000       0.938890
     2500.100000       0.939250
     2500.200000       0.939610
     2500.300000       0.939970
     2500.400000       0.940330
     2500.500000       0.940690
     2500.600000       0.941060
     2500.700000       0.941420
     2500.800000       0.941790
     2500.900000       0.942160
     2501.000000       0.942540
     2501.100000       0.942910
     2501.200000       0.943290
     2501.300000       0.943680
     2501.400000       0.944060
     2501.500000       0.944450
     2501.600000       0.944850
     2501.700000       0.945240
     2501.800000       0.945640
     2501.900000       0.946040
     2502.000000       0.946440
     2502.100000       0.946850
     2502.200000       0.947260
     2502.300000       0.947670
     2502.400000       0.948080
     2502.500000       0.948500
     2502.600000       0.948910
     2502.700000       0.949330
     2502.800000       0.949740
     2502.900000       0.950160
     2503.000000       0.950580
     2503.100000       0.950990
     2503.200000       0.951410
     2503.300000       0.951820
     2503.400000       0.952230
     2503.500000       0.952640
     2503.600000       0.953050
     2503.700000       0.953460
     2503.800000       0.953860
     2503.900000       0.954260
     2504.000000       0.954650
     2504.100000       0.955040
     2504.200000       0.955430
     2504.300000       0.955810
     2504.400000       0.956180
     2504.500000       0.956550
     2504.600000       0.956910
     2504.700000       0.957270
     2504.800000       0.957620
     2504.900000       0.957970
     2505.000000       0.958320
     2505.100000       0.958660
     2505.200000       0.959010
     2505.300000       0.959350
     2505.400000       0.959680
     2505.500000       0.960020
     2505.600000       0.960360
     2505.700000       0.960700
     2505.800000       0.961030
     2505.900000       0.961370
     2506.000000       0.961710
     2506.100000       0.962050
     2506.200000       0.962390
     2506.300000       0.962740
     2506.400000       0.963090
     2506.500000       0.963440
     2506.600000       0.963800
     2506.700000       0.964160
     2506.800000       0.964530
     2506.900000       0.964900
     2507.000000       0.965270
     2507.100000       0.965650
     2507.200000       0.966030
     2507.300000       0.966420
     2507.400000       0.966810
     2507.500000       0.967210
     2507.600000       0.967610
     2507.700000       0.968020
     2507.800000       0.968430
     2507.900000       0.968840
     2508.000000       0.969260
     2508.100000       0.969680
     2508.200000       0.970110
     2508.300000       0.970530
     2508.400000       0.970960
     2508.500000       0.971390
     2508.600000       0.971830
     2508.700000       0.972260
     2508.800000       0.972700
     2508.900000       0.973140
     2509.000000       0.973580
     2509.100000       0.974020
     2509.200000       0.974470
     2509.300000       0.974910
     2509.400000       0.975350
     2509.500000       0.975800
     2509.600000       0.976250
     2509.700000       0.976690
     2509.800000       0.977140
     2509.900000       0.977590
     2510.000000       0.978040
     2510.100000       0.978490
     2510.200000       0.978940
     2510.300000       0.979390
     2510.400000       0.979840
     2510.500000       0.980290
     2510.600000       0.980750
     2510.700000       0.981200
     2510.800000       0.981650
     2510.900000       0.982090
     2511.000000       0.982540
     2511.100000       0.982990
     2511.200000       0.983430
     2511.300000       0.983860
     2511.400000       0.984300
     2511.500000       0.984720
     2511.600000       0.985150
     2511.700000       0.985570
     2511.800000       0.985980
     2511.900000       0.986390
     2512.000000       0.986800
     2512.100000       0.987200
     2512.200000       0.987590
     2512.300000       0.987970
     2512.400000       0.988350
     2512.500000       0.988730
     2512.600000       0.989090
     2512.700000       0.989450
     2512.800000       0.989810
     2512.900000       0.990160
     2513.000000       0.990500
     2513.100000       0.990840
     2513.200000       0.991170
     2513.300000       0.991490
     2513.400000       0.991810
     2513.500000       0.992130
     2513.600000       0.992440
     2513.700000       0.992740
     2513.800000       0.993040
     2513.900000       0.993340
     2514.000000       0.993630
     2514.100000       0.993910
     2514.200000       0.994190
     2514.300000       0.994460
     2514.400000       0.994720
     2514.500000       0.994980
     2514.600000       0.995240
     2514.700000       0.995480
     2514.800000       0.995720
     2514.900000       0.995960
     2515.000000       0.996190
     2515.100000       0.996410
     2515.200000       0.996630
     2515.300000       0.996840
     2515.400000       0.997040
     2515.500000       0.997230
     2515.600000       0.997420
     2515.700000       0.997600
     2515.800000       0.997770
     2515.900000       0.997940
     2516.000000       0.998100
     2516.100000       0.998260
     2516.200000       0.998410
     2516.300000       0.998550
     2516.400000       0.998680
     2516.500000       0.998810
     2516.600000       0.998930
     2516.700000       0.999050
     2516.800000       0.999160
     2516.900000       0.999260
     2517.000000       0.999360
     2517.100000       0.999450
     2517.200000       0.999530
     2517.300000       0.999610
     2517.400000       0.999680
     2517.500000       0.999750
     2517.600000       0.999810
     2517.700000       0.999860
     2517.800000       0.999900
     2517.900000       0.999940
     2518.000000       0.999960
     2518.100000       0.999980
     2518.200000       1.000000
     2518.300000       1.000000
     2518.400000       0.999990
     2518.500000       0.999980
     2518.600000       0.999950
     2518.700000       0.999920
     2518.800000       0.999880
     2518.900000       0.999840
     2519.000000       0.999780
     2519.100000       0.999730
     2519.200000       0.999660
     2519.300000       0.999590
     2519.400000       0.999510
     2519.500000       0.999430
     2519.600000       0.999340
     2519.700000       0.999250
     2519.800000       0.999150
     2519.900000       0.999050
     2520.000000       0.998940
     2520.100000       0.998830
     2520.200000       0.998720
     2520.300000       0.998600
     2520.400000       0.998480
     2520.500000       0.998360
     2520.600000       0.998240
     2520.700000       0.998120
     2520.800000       0.997990
     2520.900000       0.997860
     2521.000000       0.997740
     2521.100000       0.997610
     2521.200000       0.997490
     2521.300000       0.997370
     2521.400000       0.997250
     2521.500000       0.997130
     2521.600000       0.997010
     2521.700000       0.996900
     2521.800000       0.996790
     2521.900000       0.996680
     2522.000000       0.996570
     2522.100000       0.996460
     2522.200000       0.996350
     2522.300000       0.996240
     2522.400000       0.996140
     2522.500000       0.996030
     2522.600000       0.995930
     2522.700000       0.995820
     2522.800000       0.995720
     2522.900000       0.995610
     2523.000000       0.995500
     2523.100000       0.995400
     2523.200000       0.995290
     2523.300000       0.995180
     2523.400000       0.995070
     2523.500000       0.994950
     2523.600000       0.994830
     2523.700000       0.994720
     2523.800000       0.994590
     2523.900000       0.994470
     2524.000000       0.994340
     2524.100000       0.994200
     2524.200000       0.994060
     2524.300000       0.993910
     2524.400000       0.993760
     2524.500000       0.993600
     2524.600000       0.993440
     2524.700000       0.993270
     2524.800000       0.993090
     2524.900000       0.992910
     2525.000000       0.992730
     2525.100000       0.992540
     2525.200000       0.992340
     2525.300000       0.992140
     2525.400000       0.991930
     2525.500000       0.991710
     2525.600000       0.991490
     2525.700000       0.991270
     2525.800000       0.991050
     2525.900000       0.990820
     2526.000000       0.990580
     2526.100000       0.990350
     2526.200000       0.990110
     2526.300000       0.989880
     2526.400000       0.989640
     2526.500000       0.989400
     2526.600000       0.989160
     2526.700000       0.988920
     2526.800000       0.988680
     2526.900000       0.988440
     2527.000000       0.988210
     2527.100000       0.987970
     2527.200000       0.987740
     2527.300000       0.987520
     2527.400000       0.987290
     2527.500000       0.987080
     2527.600000       0.986860
     2527.700000       0.986650
     2527.800000       0.986440
     2527.900000       0.986240
     2528.000000       0.986040
     2528.100000       0.985850
     2528.200000       0.985660
     2528.300000       0.985480
     2528.400000       0.985310
     2528.500000       0.985130
     2528.600000       0.984970
     2528.700000       0.984810
     2528.800000       0.984650
     2528.900000       0.984500
     2529.000000       0.984350
     2529.100000       0.984200
     2529.200000       0.984050
     2529.300000       0.983910
     2529.400000       0.983770
     2529.500000       0.983630
     2529.600000       0.983490
     2529.700000       0.983360
     2529.800000       0.983220
     2529.900000       0.983090
     2530.000000       0.982950
     2530.100000       0.982820
     2530.200000       0.982680
     2530.300000       0.982550
     2530.400000       0.982410
     2530.500000       0.982280
     2530.600000       0.982140
     2530.700000       0.982000
     2530.800000       0.981870
     2530.900000       0.981730
     2531.000000       0.981590
     2531.100000       0.981440
     2531.200000       0.981300
     2531.300000       0.981160
     2531.400000       0.981010
     2531.500000       0.980860
     2531.600000       0.980710
     2531.700000       0.980570
     2531.800000       0.980420
     2531.900000       0.980270
     2532.000000       0.980130
     2532.100000       0.979990
     2532.200000       0.979850
     2532.300000       0.979710
     2532.400000       0.979580
     2532.500000       0.979450
     2532.600000       0.979330
     2532.700000       0.979210
     2532.800000       0.979090
     2532.900000       0.978980
     2533.000000       0.978870
     2533.100000       0.978770
     2533.200000       0.978680
     2533.300000       0.978590
     2533.400000       0.978510
     2533.500000       0.978430
     2533.600000       0.978360
     2533.700000       0.978290
     2533.800000       0.978230
     2533.900000       0.978180
     2534.000000       0.978120
     2534.100000       0.978080
     2534.200000       0.978030
     2534.300000       0.977990
     2534.400000       0.977950
     2534.500000       0.977920
     2534.600000       0.977890
     2534.700000       0.977860
     2534.800000       0.977840
     2534.900000       0.977820
     2535.000000       0.977800
     2535.100000       0.977780
     2535.200000       0.977770
     2535.300000       0.977750
     2535.400000       0.977740
     2535.500000       0.977740
     2535.600000       0.977730
     2535.700000       0.977730
     2535.800000       0.977720
     2535.900000       0.977720
     2536.000000       0.977720
     2536.100000       0.977720
     2536.200000       0.977720
     2536.300000       0.977720
     2536.400000       0.977720
     2536.500000       0.977720
     2536.600000       0.977720
     2536.700000       0.977720
     2536.800000       0.977720
     2536.900000       0.977720
     2537.000000       0.977720
     2537.100000       0.977710
     2537.200000       0.977710
     2537.300000       0.977700
     2537.400000       0.977700
     2537.500000       0.977690
     2537.600000       0.977680
     2537.700000       0.977660
     2537.800000       0.977650
     2537.900000       0.977630
     2538.000000       0.977610
     2538.100000       0.977580
     2538.200000       0.977560
     2538.300000       0.977530
     2538.400000       0.977490
     2538.500000       0.977450
     2538.600000       0.977410
     2538.700000       0.977360
     2538.800000       0.977320
     2538.900000       0.977260
     2539.000000       0.977210
     2539.100000       0.977150
     2539.200000       0.977090
     2539.300000       0.977030
     2539.400000       0.976960
     2539.500000       0.976890
     2539.600000       0.976820
     2539.700000       0.976750
     2539.800000       0.976680
     2539.900000       0.976610
     2540.000000       0.976530
     2540.100000       0.976460
     2540.200000       0.976380
     2540.300000       0.976310
     2540.400000       0.976240
     2540.500000       0.976160
     2540.600000       0.976090
     2540.700000       0.976020
     2540.800000       0.975950
     2540.900000       0.975890
     2541.000000       0.975820
     2541.100000       0.975760
     2541.200000       0.975690
     2541.300000       0.975630
     2541.400000       0.975580
     2541.500000       0.975520
     2541.600000       0.975470
     2541.700000       0.975420
     2541.800000       0.975370
     2541.900000       0.975330
     2542.000000       0.975290
     2542.100000       0.975250
     2542.200000       0.975210
     2542.300000       0.975170
     2542.400000       0.975140
     2542.500000       0.975110
     2542.600000       0.975090
     2542.700000       0.975070
     2542.800000       0.975040
     2542.900000       0.975030
     2543.000000       0.975010
     2543.100000       0.975000
     2543.200000       0.974990
     2543.300000       0.974980
     2543.400000       0.974980
     2543.500000       0.974980
     2543.600000       0.974980
     2543.700000       0.974990
     2543.800000       0.975000
     2543.900000       0.975010
     2544.000000       0.975020
     2544.100000       0.975030
     2544.200000       0.975050
     2544.300000       0.975070
     2544.400000       0.975090
     2544.500000       0.975120
     2544.600000       0.975140
     2544.700000       0.975170
     2544.800000       0.975200
     2544.900000       0.975230
     2545.000000       0.975260
     2545.100000       0.975300
     2545.200000       0.975330
     2545.300000       0.975370
     2545.400000       0.975400
     2545.500000       0.975440
     2545.600000       0.975480
     2545.700000       0.975510
     2545.800000       0.975550
     2545.900000       0.975590
     2546.000000       0.975620
     2546.100000       0.975660
     2546.200000       0.975690
     2546.300000       0.975720
     2546.400000       0.975750
     2546.500000       0.975780
     2546.600000       0.975810
     2546.700000       0.975830
     2546.800000       0.975860
     2546.900000       0.975880
     2547.000000       0.975900
     2547.100000       0.975920
     2547.200000       0.975940
     2547.300000       0.975960
     2547.400000       0.975980
     2547.500000       0.976000
     2547.600000       0.976020
     2547.700000       0.976030
     2547.800000       0.976050
     2547.900000       0.976070
     2548.000000       0.976090
     2548.100000       0.976100
     2548.200000       0.976120
     2548.300000       0.976140
     2548.400000       0.976160
     2548.500000       0.976180
     2548.600000       0.976200
     2548.700000       0.976220
     2548.800000       0.976240
     2548.900000       0.976260
     2549.000000       0.976280
     2549.100000       0.976310
     2549.200000       0.976340
     2549.300000       0.976360
     2549.400000       0.976390
     2549.500000       0.976430
     2549.600000       0.976460
     2549.700000       0.976500
     2549.800000       0.976530
     2549.900000       0.976570
     2550.000000       0.976620
     2550.100000       0.976660
     2550.200000       0.976710
     2550.300000       0.976760
     2550.400000       0.976810
     2550.500000       0.976870
     2550.600000       0.976930
     2550.700000       0.977000
     2550.800000       0.977060
     2550.900000       0.977140
     2551.000000       0.977220
     2551.100000       0.977300
     2551.200000       0.977390
     2551.300000       0.977490
     2551.400000       0.977600
     2551.500000       0.977710
     2551.600000       0.977830
     2551.700000       0.977960
     2551.800000       0.978090
     2551.900000       0.978220
     2552.000000       0.978360
     2552.100000       0.978510
     2552.200000       0.978660
     2552.300000       0.978810
     2552.400000       0.978970
     2552.500000       0.979130
     2552.600000       0.979290
     2552.700000       0.979460
     2552.800000       0.979620
     2552.900000       0.979780
     2553.000000       0.979940
     2553.100000       0.980100
     2553.200000       0.980250
     2553.300000       0.980400
     2553.400000       0.980540
     2553.500000       0.980680
     2553.600000       0.980810
     2553.700000       0.980930
     2553.800000       0.981050
     2553.900000       0.981160
     2554.000000       0.981270
     2554.100000       0.981380
     2554.200000       0.981480
     2554.300000       0.981570
     2554.400000       0.981660
     2554.500000       0.981740
     2554.600000       0.981820
     2554.700000       0.981900
     2554.800000       0.981970
     2554.900000       0.982040
     2555.000000       0.982110
     2555.100000       0.982170
     2555.200000       0.982230
     2555.300000       0.982290
     2555.400000       0.982350
     2555.500000       0.982410
     2555.600000       0.982460
     2555.700000       0.982520
     2555.800000       0.982570
     2555.900000       0.982620
     2556.000000       0.982670
     2556.100000       0.982720
     2556.200000       0.982770
     2556.300000       0.982820
     2556.400000       0.982870
     2556.500000       0.982920
     2556.600000       0.982970
     2556.700000       0.983020
     2556.800000       0.983070
     2556.900000       0.983110
     2557.000000       0.983160
     2557.100000       0.983210
     2557.200000       0.983250
     2557.300000       0.983300
     2557.400000       0.983340
     2557.500000       0.983390
     2557.600000       0.983430
     2557.700000       0.983470
     2557.800000       0.983510
     2557.900000       0.983550
     2558.000000       0.983580
     2558.100000       0.983620
     2558.200000       0.983650
     2558.300000       0.983680
     2558.400000       0.983710
     2558.500000       0.983740
     2558.600000       0.983760
     2558.700000       0.983780
     2558.800000       0.983800
     2558.900000       0.983820
     2559.000000       0.983830
     2559.100000       0.983840
     2559.200000       0.983850
     2559.300000       0.983860
     2559.400000       0.983860
     2559.500000       0.983860
     2559.600000       0.983860
     2559.700000       0.983850
     2559.800000       0.983850
     2559.900000       0.983840
     2560.000000       0.983820
     2560.100000       0.983810
     2560.200000       0.983780
     2560.300000       0.983760
     2560.400000       0.983730
     2560.500000       0.983700
     2560.600000       0.983670
     2560.700000       0.983630
     2560.800000       0.983590
     2560.900000       0.983550
     2561.000000       0.983500
     2561.100000       0.983450
     2561.200000       0.983400
     2561.300000       0.983350
     2561.400000       0.983300
     2561.500000       0.983250
     2561.600000       0.983190
     2561.700000       0.983140
     2561.800000       0.983080
     2561.900000       0.983030
     2562.000000       0.982970
     2562.100000       0.982910
     2562.200000       0.982860
     2562.300000       0.982800
     2562.400000       0.982750
     2562.500000       0.982690
     2562.600000       0.982640
     2562.700000       0.982590
     2562.800000       0.982530
     2562.900000       0.982480
     2563.000000       0.982430
     2563.100000       0.982380
     2563.200000       0.982330
     2563.300000       0.982280
     2563.400000       0.982220
     2563.500000       0.982170
     2563.600000       0.982120
     2563.700000       0.982070
     2563.800000       0.982010
     2563.900000       0.981960
     2564.000000       0.981900
     2564.100000       0.981850
     2564.200000       0.981790
     2564.300000       0.981730
     2564.400000       0.981670
     2564.500000       0.981610
     2564.600000       0.981550
     2564.700000       0.981480
     2564.800000       0.981420
     2564.900000       0.981350
     2565.000000       0.981280
     2565.100000       0.981200
     2565.200000       0.981130
     2565.300000       0.981050
     2565.400000       0.980970
     2565.500000       0.980890
     2565.600000       0.980800
     2565.700000       0.980710
     2565.800000       0.980620
     2565.900000       0.980520
     2566.000000       0.980420
     2566.100000       0.980310
     2566.200000       0.980200
     2566.300000       0.980090
     2566.400000       0.979970
     2566.500000       0.979840
     2566.600000       0.979710
     2566.700000       0.979570
     2566.800000       0.979430
     2566.900000       0.979280
     2567.000000       0.979130
     2567.100000       0.978970
     2567.200000       0.978810
     2567.300000       0.978640
     2567.400000       0.978460
     2567.500000       0.978280
     2567.600000       0.978090
     2567.700000       0.977890
     2567.800000       0.977690
     2567.900000       0.977480
     2568.000000       0.977270
     2568.100000       0.977050
     2568.200000       0.976830
     2568.300000       0.976600
     2568.400000       0.976360
     2568.500000       0.976120
     2568.600000       0.975870
     2568.700000       0.975620
     2568.800000       0.975360
     2568.900000       0.975100
     2569.000000       0.974830
     2569.100000       0.974550
     2569.200000       0.974270
     2569.300000       0.973990
     2569.400000       0.973700
     2569.500000       0.973400
     2569.600000       0.973100
     2569.700000       0.972790
     2569.800000       0.972480
     2569.900000       0.972160
     2570.000000       0.971840
     2570.100000       0.971510
     2570.200000       0.971180
     2570.300000       0.970840
     2570.400000       0.970500
     2570.500000       0.970150
     2570.600000       0.969800
     2570.700000       0.969450
     2570.800000       0.969090
     2570.900000       0.968720
     2571.000000       0.968360
     2571.100000       0.967980
     2571.200000       0.967610
     2571.300000       0.967230
     2571.400000       0.966850
     2571.500000       0.966460
     2571.600000       0.966070
     2571.700000       0.965670
     2571.800000       0.965280
     2571.900000       0.964880
     2572.000000       0.964470
     2572.100000       0.964060
     2572.200000       0.963650
     2572.300000       0.963230
     2572.400000       0.962810
     2572.500000       0.962390
     2572.600000       0.961960
     2572.700000       0.961530
     2572.800000       0.961100
     2572.900000       0.960660
     2573.000000       0.960220
     2573.100000       0.959780
     2573.200000       0.959340
     2573.300000       0.958900
     2573.400000       0.958450
     2573.500000       0.958010
     2573.600000       0.957560
     2573.700000       0.957110
     2573.800000       0.956660
     2573.900000       0.956210
     2574.000000       0.955760
     2574.100000       0.955320
     2574.200000       0.954870
     2574.300000       0.954420
     2574.400000       0.953980
     2574.500000       0.953540
     2574.600000       0.953090
     2574.700000       0.952660
     2574.800000       0.952220
     2574.900000       0.951790
     2575.000000       0.951360
     2575.100000       0.950930
     2575.200000       0.950510
     2575.300000       0.950100
     2575.400000       0.949690
     2575.500000       0.949280
     2575.600000       0.948880
     2575.700000       0.948480
     2575.800000       0.948090
     2575.900000       0.947700
     2576.000000       0.947310
     2576.100000       0.946930
     2576.200000       0.946550
     2576.300000       0.946160
     2576.400000       0.945790
     2576.500000       0.945410
     2576.600000       0.945030
     2576.700000       0.944650
     2576.800000       0.944270
     2576.900000       0.943880
     2577.000000       0.943500
     2577.100000       0.943110
     2577.200000       0.942710
     2577.300000       0.942310
     2577.400000       0.941910
     2577.500000       0.941500
     2577.600000       0.941070
     2577.700000       0.940650
     2577.800000       0.940210
     2577.900000       0.939760
     2578.000000       0.939300
     2578.100000       0.938820
     2578.200000       0.938340
     2578.300000       0.937830
     2578.400000       0.937310
     2578.500000       0.936770
     2578.600000       0.936220
     2578.700000       0.935650
     2578.800000       0.935060
     2578.900000       0.934460
     2579.000000       0.933850
     2579.100000       0.933220
     2579.200000       0.932580
     2579.300000       0.931920
     2579.400000       0.931260
     2579.500000       0.930570
     2579.600000       0.929880
     2579.700000       0.929180
     2579.800000       0.928470
     2579.900000       0.927760
     2580.000000       0.927050
     2580.100000       0.926340
     2580.200000       0.925620
     2580.300000       0.924910
     2580.400000       0.924210
     2580.500000       0.923510
     2580.600000       0.922820
     2580.700000       0.922130
     2580.800000       0.921450
     2580.900000       0.920780
     2581.000000       0.920120
     2581.100000       0.919460
     2581.200000       0.918820
     2581.300000       0.918180
     2581.400000       0.917560
     2581.500000       0.916950
     2581.600000       0.916350
     2581.700000       0.915760
     2581.800000       0.915170
     2581.900000       0.914600
     2582.000000       0.914020
     2582.100000       0.913460
     2582.200000       0.912890
     2582.300000       0.912330
     2582.400000       0.911770
     2582.500000       0.911220
     2582.600000       0.910660
     2582.700000       0.910100
     2582.800000       0.909550
     2582.900000       0.908990
     2583.000000       0.908430
     2583.100000       0.907860
     2583.200000       0.907300
     2583.300000       0.906720
     2583.400000       0.906150
     2583.500000       0.905560
     2583.600000       0.904970
     2583.700000       0.904380
     2583.800000       0.903790
     2583.900000       0.903190
     2584.000000       0.902590
     2584.100000       0.901980
     2584.200000       0.901380
     2584.300000       0.900770
     2584.400000       0.900160
     2584.500000       0.899550
     2584.600000       0.898940
     2584.700000       0.898330
     2584.800000       0.897720
     2584.900000       0.897120
     2585.000000       0.896530
     2585.100000       0.895940
     2585.200000       0.895360
     2585.300000       0.894780
     2585.400000       0.894220
     2585.500000       0.893670
     2585.600000       0.893130
     2585.700000       0.892600
     2585.800000       0.892080
     2585.900000       0.891560
     2586.000000       0.891050
     2586.100000       0.890550
     2586.200000       0.890060
     2586.300000       0.889570
     2586.400000       0.889090
     2586.500000       0.888620
     2586.600000       0.888150
     2586.700000       0.887680
     2586.800000       0.887220
     2586.900000       0.886760
     2587.000000       0.886300
     2587.100000       0.885840
     2587.200000       0.885380
     2587.300000       0.884920
     2587.400000       0.884460
     2587.500000       0.883990
     2587.600000       0.883520
     2587.700000       0.883060
     2587.800000       0.882590
     2587.900000       0.882130
     2588.000000       0.881660
     2588.100000       0.881200
     2588.200000       0.880750
     2588.300000       0.880300
     2588.400000       0.879850
     2588.500000       0.879410
     2588.600000       0.878980
     2588.700000       0.878560
     2588.800000       0.878140
     2588.900000       0.877740
     2589.000000       0.877350
     2589.100000       0.876980
     2589.200000       0.876620
     2589.300000       0.876270
     2589.400000       0.875950
     2589.500000       0.875640
     2589.600000       0.875350
     2589.700000       0.875070
     2589.800000       0.874810
     2589.900000       0.874550
     2590.000000       0.874310
     2590.100000       0.874070
     2590.200000       0.873840
     2590.300000       0.873620
     2590.400000       0.873400
     2590.500000       0.873180
     2590.600000       0.872970
     2590.700000       0.872760
     2590.800000       0.872540
     2590.900000       0.872320
     2591.000000       0.872100
     2591.100000       0.871870
     2591.200000       0.871640
     2591.300000       0.871390
     2591.400000       0.871130
     2591.500000       0.870860
     2591.600000       0.870580
     2591.700000       0.870300
     2591.800000       0.870000
     2591.900000       0.869700
     2592.000000       0.869400
     2592.100000       0.869090
     2592.200000       0.868790
     2592.300000       0.868480
     2592.400000       0.868170
     2592.500000       0.867860
     2592.600000       0.867550
     2592.700000       0.867250
     2592.800000       0.866950
     2592.900000       0.866660
     2593.000000       0.866370
     2593.100000       0.866090
     2593.200000       0.865810
     2593.300000       0.865550
     2593.400000       0.865300
     2593.500000       0.865050
     2593.600000       0.864820
     2593.700000       0.864600
     2593.800000       0.864390
     2593.900000       0.864180
     2594.000000       0.863980
     2594.100000       0.863790
     2594.200000       0.863610
     2594.300000       0.863440
     2594.400000       0.863280
     2594.500000       0.863120
     2594.600000       0.862970
     2594.700000       0.862830
     2594.800000       0.862700
     2594.900000       0.862570
     2595.000000       0.862450
     2595.100000       0.862330
     2595.200000       0.862220
     2595.300000       0.862120
     2595.400000       0.862020
     2595.500000       0.861930
     2595.600000       0.861850
     2595.700000       0.861770
     2595.800000       0.861690
     2595.900000       0.861620
     2596.000000       0.861550
     2596.100000       0.861490
     2596.200000       0.861430
     2596.300000       0.861360
     2596.400000       0.861300
     2596.500000       0.861250
     2596.600000       0.861190
     2596.700000       0.861130
     2596.800000       0.861070
     2596.900000       0.861010
     2597.000000       0.860940
     2597.100000       0.860870
     2597.200000       0.860800
     2597.300000       0.860720
     2597.400000       0.860640
     2597.500000       0.860550
     2597.600000       0.860460
     2597.700000       0.860360
     2597.800000       0.860260
     2597.900000       0.860160
     2598.000000       0.860050
     2598.100000       0.859940
     2598.200000       0.859820
     2598.300000       0.859710
     2598.400000       0.859590
     2598.500000       0.859470
     2598.600000       0.859350
     2598.700000       0.859230
     2598.800000       0.859110
     2598.900000       0.858990
     2599.000000       0.858880
     2599.100000       0.858770
     2599.200000       0.858670
     2599.300000       0.858570
     2599.400000       0.858470
     2599.500000       0.858390
     2599.600000       0.858310
     2599.700000       0.858250
     2599.800000       0.858190
     2599.900000       0.858140
     2600.000000       0.858100
     2600.100000       0.858080
     2600.200000       0.858060
     2600.300000       0.858060
     2600.400000       0.858080
     2600.500000       0.858110
     2600.600000       0.858150
     2600.700000       0.858210
     2600.800000       0.858280
     2600.900000       0.858360
     2601.000000       0.858450
     2601.100000       0.858550
     2601.200000       0.858660
     2601.300000       0.858780
     2601.400000       0.858910
     2601.500000       0.859050
     2601.600000       0.859190
     2601.700000       0.859330
     2601.800000       0.859470
     2601.900000       0.859610
     2602.000000       0.859740
     2602.100000       0.859860
     2602.200000       0.859970
     2602.300000       0.860060
     2602.400000       0.860140
     2602.500000       0.860190
     2602.600000       0.860240
     2602.700000       0.860260
     2602.800000       0.860280
     2602.900000       0.860290
     2603.000000       0.860290
     2603.100000       0.860280
     2603.200000       0.860270
     2603.300000       0.860260
     2603.400000       0.860250
     2603.500000       0.860230
     2603.600000       0.860220
     2603.700000       0.860210
     2603.800000       0.860200
     2603.900000       0.860190
     2604.000000       0.860190
     2604.100000       0.860190
     2604.200000       0.860200
     2604.300000       0.860210
     2604.400000       0.860240
     2604.500000       0.860270
     2604.600000       0.860310
     2604.700000       0.860360
     2604.800000       0.860410
     2604.900000       0.860470
     2605.000000       0.860530
     2605.100000       0.860600
     2605.200000       0.860670
     2605.300000       0.860740
     2605.400000       0.860820
     2605.500000       0.860900
     2605.600000       0.860980
     2605.700000       0.861070
     2605.800000       0.861150
     2605.900000       0.861240
     2606.000000       0.861320
     2606.100000       0.861410
     2606.200000       0.861490
     2606.300000       0.861580
     2606.400000       0.861660
     2606.500000       0.861740
     2606.600000       0.861810
     2606.700000       0.861890
     2606.800000       0.861960
     2606.900000       0.862040
     2607.000000       0.862110
     2607.100000       0.862190
     2607.200000       0.862260
     2607.300000       0.862330
     2607.400000       0.862410
     2607.500000       0.862480
     2607.600000       0.862560
     2607.700000       0.862630
     2607.800000       0.862710
     2607.900000       0.862780
     2608.000000       0.862860
     2608.100000       0.862940
     2608.200000       0.863020
     2608.300000       0.863100
     2608.400000       0.863180
     2608.500000       0.863270
     2608.600000       0.863350
     2608.700000       0.863440
     2608.800000       0.863520
     2608.900000       0.863610
     2609.000000       0.863700
     2609.100000       0.863790
     2609.200000       0.863890
     2609.300000       0.863980
     2609.400000       0.864080
     2609.500000       0.864170
     2609.600000       0.864270
     2609.700000       0.864370
     2609.800000       0.864480
     2609.900000       0.864580
     2610.000000       0.864690
     2610.100000       0.864790
     2610.200000       0.864900
     2610.300000       0.865020
     2610.400000       0.865130
     2610.500000       0.865250
     2610.600000       0.865360
     2610.700000       0.865480
     2610.800000       0.865610
     2610.900000       0.865730
     2611.000000       0.865860
     2611.100000       0.865990
     2611.200000       0.866120
     2611.300000       0.866260
     2611.400000       0.866400
     2611.500000       0.866540
     2611.600000       0.866690
     2611.700000       0.866840
     2611.800000       0.866990
     2611.900000       0.867150
     2612.000000       0.867310
     2612.100000       0.867470
     2612.200000       0.867640
     2612.300000       0.867820
     2612.400000       0.867990
     2612.500000       0.868180
     2612.600000       0.868360
     2612.700000       0.868550
     2612.800000       0.868740
     2612.900000       0.868930
     2613.000000       0.869130
     2613.100000       0.869320
     2613.200000       0.869520
     2613.300000       0.869710
     2613.400000       0.869910
     2613.500000       0.870100
     2613.600000       0.870290
     2613.700000       0.870480
     2613.800000       0.870660
     2613.900000       0.870840
     2614.000000       0.871020
     2614.100000       0.871190
     2614.200000       0.871360
     2614.300000       0.871520
     2614.400000       0.871680
     2614.500000       0.871820
     2614.600000       0.871960
     2614.700000       0.872100
     2614.800000       0.872220
     2614.900000       0.872340
     2615.000000       0.872460
     2615.100000       0.872560
     2615.200000       0.872660
     2615.300000       0.872740
     2615.400000       0.872820
     2615.500000       0.872890
     2615.600000       0.872950
     2615.700000       0.873000
     2615.800000       0.873040
     2615.900000       0.873080
     2616.000000       0.873100
     2616.100000       0.873110
     2616.200000       0.873120
     2616.300000       0.873110
     2616.400000       0.873090
     2616.500000       0.873060
     2616.600000       0.873010
     2616.700000       0.872960
     2616.800000       0.872890
     2616.900000       0.872800
     2617.000000       0.872700
     2617.100000       0.872590
     2617.200000       0.872460
     2617.300000       0.872300
     2617.400000       0.872130
     2617.500000       0.871940
     2617.600000       0.871740
     2617.700000       0.871520
     2617.800000       0.871300
     2617.900000       0.871060
     2618.000000       0.870830
     2618.100000       0.870590
     2618.200000       0.870350
     2618.300000       0.870110
     2618.400000       0.869880
     2618.500000       0.869650
     2618.600000       0.869400
     2618.700000       0.869140
     2618.800000       0.868860
     2618.900000       0.868550
     2619.000000       0.868190
     2619.100000       0.867780
     2619.200000       0.867310
     2619.300000       0.866780
     2619.400000       0.866170
     2619.500000       0.865490
     2619.600000       0.864760
     2619.700000       0.864010
     2619.800000       0.863250
     2619.900000       0.862490
     2620.000000       0.861750
     2620.100000       0.861050
     2620.200000       0.860410
     2620.300000       0.859840
     2620.400000       0.859360
     2620.500000       0.858960
     2620.600000       0.858640
     2620.700000       0.858380
     2620.800000       0.858170
     2620.900000       0.858010
     2621.000000       0.857880
     2621.100000       0.857770
     2621.200000       0.857690
     2621.300000       0.857610
     2621.400000       0.857530
     2621.500000       0.857450
     2621.600000       0.857370
     2621.700000       0.857290
     2621.800000       0.857210
     2621.900000       0.857120
     2622.000000       0.857040
     2622.100000       0.856960
     2622.200000       0.856870
     2622.300000       0.856790
     2622.400000       0.856700
     2622.500000       0.856620
     2622.600000       0.856530
     2622.700000       0.856430
     2622.800000       0.856340
     2622.900000       0.856240
     2623.000000       0.856140
     2623.100000       0.856030
     2623.200000       0.855920
     2623.300000       0.855800
     2623.400000       0.855670
     2623.500000       0.855540
     2623.600000       0.855400
     2623.700000       0.855250
     2623.800000       0.855090
     2623.900000       0.854920
     2624.000000       0.854750
     2624.100000       0.854570
     2624.200000       0.854370
     2624.300000       0.854170
     2624.400000       0.853950
     2624.500000       0.853720
     2624.600000       0.853480
     2624.700000       0.853230
     2624.800000       0.852960
     2624.900000       0.852680
     2625.000000       0.852390
     2625.100000       0.852080
     2625.200000       0.851750
     2625.300000       0.851410
     2625.400000       0.851050
     2625.500000       0.850670
     2625.600000       0.850280
     2625.700000       0.849880
     2625.800000       0.849470
     2625.900000       0.849050
     2626.000000       0.848630
     2626.100000       0.848220
     2626.200000       0.847800
     2626.300000       0.847390
     2626.400000       0.846990
     2626.500000       0.846600
     2626.600000       0.846250
     2626.700000       0.845930
     2626.800000       0.845670
     2626.900000       0.845470
     2627.000000       0.845350
     2627.100000       0.845320
     2627.200000       0.845400
     2627.300000       0.845590
     2627.400000       0.845920
     2627.500000       0.846320
     2627.600000       0.846740
     2627.700000       0.847090
     2627.800000       0.847310
     2627.900000       0.847330
     2628.000000       0.847080
     2628.100000       0.846480
     2628.200000       0.845460
     2628.300000       0.843920
     2628.400000       0.841800
     2628.500000       0.839170
     2628.600000       0.836120
     2628.700000       0.832760
     2628.800000       0.829150
     2628.900000       0.825410
     2629.000000       0.821600
     2629.100000       0.817830
     2629.200000       0.814180
     2629.300000       0.810720
     2629.400000       0.807560
     2629.500000       0.804660
     2629.600000       0.802010
     2629.700000       0.799590
     2629.800000       0.797360
     2629.900000       0.795320
     2630.000000       0.793420
     2630.100000       0.791650
     2630.200000       0.790010
     2630.300000       0.788470
     2630.400000       0.787010
     2630.500000       0.785620
     2630.600000       0.784280
     2630.700000       0.782970
     2630.800000       0.781660
     2630.900000       0.780350
     2631.000000       0.779010
     2631.100000       0.777620
     2631.200000       0.776160
     2631.300000       0.774620
     2631.400000       0.772970
     2631.500000       0.771220
     2631.600000       0.769380
     2631.700000       0.767470
     2631.800000       0.765470
     2631.900000       0.763410
     2632.000000       0.761290
     2632.100000       0.759120
     2632.200000       0.756900
     2632.300000       0.754640
     2632.400000       0.752340
     2632.500000       0.750000
     2632.600000       0.747640
     2632.700000       0.745250
     2632.800000       0.742840
     2632.900000       0.740410
     2633.000000       0.737960
     2633.100000       0.735490
     2633.200000       0.733020
     2633.300000       0.730530
     2633.400000       0.728040
     2633.500000       0.725520
     2633.600000       0.722970
     2633.700000       0.720370
     2633.800000       0.717700
     2633.900000       0.714940
     2634.000000       0.712080
     2634.100000       0.709100
     2634.200000       0.705980
     2634.300000       0.702700
     2634.400000       0.699240
     2634.500000       0.695580
     2634.600000       0.691750
     2634.700000       0.687750
     2634.800000       0.683560
     2634.900000       0.679200
     2635.000000       0.674640
     2635.100000       0.669890
     2635.200000       0.664960
     2635.300000       0.659800
     2635.400000       0.654440
     2635.500000       0.648880
     2635.600000       0.643140
     2635.700000       0.637280
     2635.800000       0.631290
     2635.900000       0.625230
     2636.000000       0.619080
     2636.100000       0.612880
     2636.200000       0.606670
     2636.300000       0.600440
     2636.400000       0.594240
     2636.500000       0.588050
     2636.600000       0.581880
     2636.700000       0.575760
     2636.800000       0.569650
     2636.900000       0.563610
     2637.000000       0.557590
     2637.100000       0.551620
     2637.200000       0.545730
     2637.300000       0.539880
     2637.400000       0.534120
     2637.500000       0.528400
     2637.600000       0.522740
     2637.700000       0.517150
     2637.800000       0.511580
     2637.900000       0.506060
     2638.000000       0.500550
     2638.100000       0.495070
     2638.200000       0.489610
     2638.300000       0.484150
     2638.400000       0.478720
     2638.500000       0.473270
     2638.600000       0.467820
     2638.700000       0.462400
     2638.800000       0.456960
     2638.900000       0.451540
     2639.000000       0.446110
     2639.100000       0.440690
     2639.200000       0.435290
     2639.300000       0.429880
     2639.400000       0.424490
     2639.500000       0.419090
     2639.600000       0.413700
     2639.700000       0.408340
     2639.800000       0.402970
     2639.900000       0.397630
     2640.000000       0.392300
     2640.100000       0.386980
     2640.200000       0.381690
     2640.300000       0.376410
     2640.400000       0.371170
     2640.500000       0.365940
     2640.600000       0.360730
     2640.700000       0.355570
     2640.800000       0.350420
     2640.900000       0.345310
     2641.000000       0.340220
     2641.100000       0.335170
     2641.200000       0.330160
     2641.300000       0.325180
     2641.400000       0.320260
     2641.500000       0.315360
     2641.600000       0.310510
     2641.700000       0.305720
     2641.800000       0.300960
     2641.900000       0.296260
     2642.000000       0.291610
     2642.100000       0.287010
     2642.200000       0.282490
     2642.300000       0.278020
     2642.400000       0.273630
     2642.500000       0.269300
     2642.600000       0.265030
     2642.700000       0.260830
     2642.800000       0.256670
     2642.900000       0.252580
     2643.000000       0.248520
     2643.100000       0.244510
     2643.200000       0.240550
     2643.300000       0.236630
     2643.400000       0.232750
     2643.500000       0.228910
     2643.600000       0.225100
     2643.700000       0.221330
     2643.800000       0.217580
     2643.900000       0.213860
     2644.000000       0.210160
     2644.100000       0.206470
     2644.200000       0.202810
     2644.300000       0.199150
     2644.400000       0.195510
     2644.500000       0.191880
     2644.600000       0.188250
     2644.700000       0.184630
     2644.800000       0.181010
     2644.900000       0.177400
     2645.000000       0.173780
     2645.100000       0.170160
     2645.200000       0.166540
     2645.300000       0.162900
     2645.400000       0.159260
     2645.500000       0.155620
     2645.600000       0.151980
     2645.700000       0.148360
     2645.800000       0.144760
     2645.900000       0.141200
     2646.000000       0.137670
     2646.100000       0.134200
     2646.200000       0.130800
     2646.300000       0.127460
     2646.400000       0.124220
     2646.500000       0.121060
     2646.600000       0.117980
     2646.700000       0.115000
     2646.800000       0.112100
     2646.900000       0.109300
     2647.000000       0.106590
     2647.100000       0.103980
     2647.200000       0.101490
     2647.300000       0.099100
     2647.400000       0.096850
     2647.500000       0.094700
     2647.600000       0.092670
     2647.700000       0.090750
     2647.800000       0.088940
     2647.900000       0.087240
     2648.000000       0.083460
     2648.100000       0.079250
     2648.200000       0.076040
     2648.300000       0.072770
     2648.400000       0.069890
     2648.500000       0.066760
     2648.600000       0.064160
     2648.700000       0.062260
     2648.800000       0.058450
     2648.900000       0.055460
     2649.000000       0.052880
     2649.100000       0.049530
     2649.200000       0.047230
     2649.300000       0.044760
     2649.400000       0.041450
     2649.500000       0.038230
     2649.600000       0.035190
     2649.700000       0.032560
     2649.800000       0.031270
     2649.900000       0.029330
     2650.000000       0.028220
     2650.100000       0.026740
     2650.200000       0.024290
     2650.300000       0.022550
     2650.400000       0.020340
     2650.500000       0.018660
     2650.600000       0.018340
     2650.700000       0.018010
     2650.800000       0.017870
     2650.900000       0.017540
     2651.000000       0.017230
     2651.100000       0.016750
     2651.200000       0.016480
     2651.300000       0.016020
     2651.400000       0.015760
     2651.500000       0.015220
     2651.600000       0.015030
     2651.700000       0.014870
     2651.800000       0.014580
     2651.900000       0.014330
     2652.000000       0.014050
     2652.100000       0.013770
     2652.200000       0.013510
     2652.300000       0.013290
     2652.400000       0.012990
     2652.500000       0.012670
     2652.600000       0.012430
     2652.700000       0.012190
     2652.800000       0.011790
     2652.900000       0.011450
     2653.000000       0.011100
     2653.100000       0.010890
     2653.200000       0.010670
     2653.300000       0.010430
     2653.400000       0.010230
     2653.500000       0.010080
     2653.600000       0.009870
     2653.700000       0.009640
     2653.800000       0.009430
     2653.900000       0.009270
     2654.000000       0.009060
