1,    channel 1 SRF extracted from SRF_FY-3F_MERSI-III.zip(FY3F_MERSI_SRF_CH01_Pub.txt) (received Nov 2023)
Number of data points:
208
Wavenumber (cm-1)   Filter response
    19047.590000       0.006774
    19065.802400       0.006774
    19083.969500       0.006774
    19102.178500       0.006774
    19120.422300       0.006774
    19138.781600       0.006774
    19157.095500       0.006774
    19175.451700       0.006774
    19193.846900       0.006774
    19212.277400       0.006774
    19230.739600       0.006774
    19249.248500       0.007379
    19267.789300       0.007379
    19286.369600       0.007379
    19304.985800       0.007379
    19323.641600       0.007379
    19342.333600       0.008003
    19361.069200       0.008003
    19379.837400       0.008003
    19398.645900       0.008623
    19417.494600       0.009245
    19436.380000       0.008640
    19455.226400       0.009892
    19474.189100       0.011147
    19493.192600       0.011787
    19512.233200       0.012429
    19531.234700       0.013707
    19550.353600       0.014999
    19569.433300       0.016935
    19588.630900       0.018877
    19607.870100       0.020827
    19627.066100       0.022794
    19646.384700       0.024133
    19665.664000       0.026787
    19685.062600       0.029451
    19704.418000       0.033433
    19723.897000       0.038753
    19743.336600       0.044752
    19762.810700       0.050147
    19782.413200       0.058875
    19801.972400       0.068322
    19821.574100       0.080508
    19841.297400       0.095431
    19860.977100       0.114468
    19880.699900       0.134315
    19900.465800       0.156990
    19920.354400       0.181885
    19940.203300       0.209681
    19960.091800       0.238386
    19980.024000       0.271448
    19999.996000       0.305463
    20020.008000       0.341875
    20040.068100       0.379298
    20060.164400       0.420545
    20080.305200       0.460747
    20100.494400       0.503371
    20120.716200       0.544961
    20140.986900       0.587604
    20161.298500       0.627788
    20181.655100       0.669734
    20202.052900       0.709863
    20222.406000       0.747436
    20242.894500       0.783160
    20263.424500       0.817003
    20283.996200       0.846789
    20304.527300       0.874632
    20325.186700       0.901246
    20345.801300       0.923651
    20366.640300       0.944046
    20387.343200       0.960123
    20408.184100       0.974101
    20428.975800       0.982919
    20449.901900       0.991831
    20470.787200       0.997041
    20491.803300       1.000000
    20512.862600       0.999947
    20533.885100       0.999120
    20554.946600       0.997576
    20576.148600       0.992123
    20597.301100       0.986652
    20618.595000       0.980384
    20639.834900       0.976467
    20661.127100       0.967000
    20682.561800       0.962227
    20703.942300       0.957376
    20725.375700       0.953264
    20746.853500       0.947501
    20768.466500       0.944874
    20790.038100       0.940592
    20811.658900       0.934583
    20833.324700       0.929341
    20855.035600       0.925712
    20876.791900       0.919510
    20898.602300       0.916624
    20920.458300       0.915315
    20942.452200       0.914831
    20964.404500       0.913483
    20986.407300       0.913744
    21008.359200       0.911445
    21030.458800       0.912582
    21052.605000       0.912874
    21074.793400       0.910526
    21097.037500       0.910761
    21119.328600       0.910977
    21141.671400       0.911176
    21164.061500       0.912214
    21186.404800       0.914032
    21208.898700       0.915820
    21231.431500       0.918463
    21254.025800       0.915634
    21276.568600       0.911846
    21299.259100       0.908863
    21322.002500       0.903976
    21344.694400       0.897160
    21367.539600       0.894823
    21390.333200       0.889567
    21413.276200       0.883234
    21436.277800       0.877715
    21459.222900       0.869205
    21482.327900       0.861341
    21505.376300       0.851225
    21528.478900       0.842761
    21551.738100       0.833144
    21574.949800       0.826223
    21598.304800       0.814586
    21621.616900       0.806860
    21644.984200       0.799238
    21668.500500       0.793666
    21691.978700       0.786208
    21715.498300       0.782872
    21739.177700       0.779710
    21762.814100       0.776726
    21786.497100       0.772913
    21810.236500       0.772189
    21834.032500       0.771506
    21857.875700       0.770803
    21881.881200       0.769073
    21905.838600       0.767344
    21929.848600       0.764570
    21953.911300       0.761850
    21978.036500       0.758057
    22002.214700       0.756374
    22026.441400       0.752554
    22050.731200       0.749774
    22075.079600       0.742636
    22099.471900       0.735363
    22123.933000       0.725847
    22148.443300       0.713961
    22172.904800       0.701976
    22197.533600       0.688653
    22222.212300       0.676274
    22246.950900       0.658063
    22271.749600       0.640707
    22296.499300       0.618602
    22321.413600       0.596189
    22346.378700       0.570067
    22371.409700       0.545884
    22396.386500       0.519040
    22421.534700       0.491841
    22446.734500       0.464285
    22471.895000       0.436365
    22497.213200       0.408075
    22522.487000       0.381812
    22547.924500       0.355183
    22573.317600       0.328177
    22598.875200       0.304538
    22624.388300       0.280534
    22650.066900       0.257471
    22675.701000       0.236591
    22701.501400       0.216643
    22727.252100       0.193890
    22753.175100       0.174669
    22779.053700       0.155183
    22804.985900       0.135428
    22831.091900       0.118008
    22857.153300       0.104299
    22883.269000       0.089051
    22909.455000       0.076270
    22935.811400       0.065992
    22962.117800       0.055544
    22988.489900       0.046361
    23014.922600       0.041159
    23041.416300       0.035871
    23068.093300       0.031914
    23094.720200       0.029258
    23121.403300       0.026583
    23148.153500       0.020991
    23174.971000       0.016766
    23201.850800       0.013982
    23228.792900       0.011124
    23255.808500       0.008246
    23282.881700       0.008246
    23310.023300       0.008246
    23337.228300       0.006774
    23364.496900       0.006774
    23391.834800       0.006774
    23419.242100       0.006774
    23446.708300       0.008352
    23474.134300       0.008352
    23501.735000       0.008352
    23529.406200       0.008352
    23557.153800       0.006723
    23584.955700       0.005145
    23612.711900       0.005145
    23640.656300       0.005145
    23668.672700       0.005145
    23696.626300       0.006774
    23724.781200       0.005062
