04  , Filter noaa_16_avhrr_04.flt
Number of data points:
251
Wavenumber (cm-1)   Filter response
      810.000000       0.000000
      811.000000       0.000012
      812.000000       0.001971
      813.000000       0.001487
      814.000000       0.000985
      815.000000       0.000771
      816.000000       0.000291
      817.000000       0.000000
      818.000000       0.000000
      819.000000       0.000000
      820.000000       0.000000
      821.000000       0.000000
      822.000000       0.001656
      823.000000       0.001561
      824.000000       0.000000
      825.000000       0.000000
      826.000000       0.000000
      827.000000       0.000000
      828.000000       0.000000
      829.000000       0.000184
      830.000000       0.001520
      831.000000       0.002147
      832.000000       0.001530
      833.000000       0.001096
      834.000000       0.000855
      835.000000       0.001551
      836.000000       0.003020
      837.000000       0.002914
      838.000000       0.003578
      839.000000       0.004707
      840.000000       0.003227
      841.000000       0.002158
      842.000000       0.003091
      843.000000       0.005175
      844.000000       0.006103
      845.000000       0.005665
      846.000000       0.005495
      847.000000       0.007431
      848.000000       0.008323
      849.000000       0.008289
      850.000000       0.010202
      851.000000       0.012965
      852.000000       0.015316
      853.000000       0.016990
      854.000000       0.019266
      855.000000       0.023046
      856.000000       0.028243
      857.000000       0.033556
      858.000000       0.038591
      859.000000       0.044250
      860.000000       0.052261
      861.000000       0.060901
      862.000000       0.070682
      863.000000       0.085143
      864.000000       0.101207
      865.000000       0.118055
      866.000000       0.139251
      867.000000       0.165330
      868.000000       0.196466
      869.000000       0.233091
      870.000000       0.274553
      871.000000       0.319679
      872.000000       0.367607
      873.000000       0.419713
      874.000000       0.474369
      875.000000       0.526249
      876.000000       0.580935
      877.000000       0.637577
      878.000000       0.682821
      879.000000       0.730935
      880.000000       0.788756
      881.000000       0.827822
      882.000000       0.853242
      883.000000       0.885299
      884.000000       0.932083
      885.000000       0.974247
      886.000000       0.985258
      887.000000       0.987672
      888.000000       0.994426
      889.000000       0.999424
      890.000000       1.000000
      891.000000       0.997403
      892.000000       0.996290
      893.000000       0.988357
      894.000000       0.966176
      895.000000       0.945121
      896.000000       0.933636
      897.000000       0.930200
      898.000000       0.922784
      899.000000       0.905952
      900.000000       0.888723
      901.000000       0.875828
      902.000000       0.867210
      903.000000       0.855477
      904.000000       0.839375
      905.000000       0.825243
      906.000000       0.817820
      907.000000       0.816234
      908.000000       0.807524
      909.000000       0.792170
      910.000000       0.781647
      911.000000       0.778628
      912.000000       0.779869
      913.000000       0.775006
      914.000000       0.764010
      915.000000       0.755247
      916.000000       0.757406
      917.000000       0.770209
      918.000000       0.774357
      919.000000       0.770902
      920.000000       0.776128
      921.000000       0.786978
      922.000000       0.795873
      923.000000       0.798824
      924.000000       0.799240
      925.000000       0.807010
      926.000000       0.821403
      927.000000       0.836529
      928.000000       0.843390
      929.000000       0.843878
      930.000000       0.856167
      931.000000       0.871967
      932.000000       0.869308
      933.000000       0.862104
      934.000000       0.865611
      935.000000       0.870899
      936.000000       0.873829
      937.000000       0.878958
      938.000000       0.881273
      939.000000       0.871773
      940.000000       0.857866
      941.000000       0.848367
      942.000000       0.844033
      943.000000       0.843438
      944.000000       0.843006
      945.000000       0.837296
      946.000000       0.821045
      947.000000       0.807617
      948.000000       0.810483
      949.000000       0.811290
      950.000000       0.797523
      951.000000       0.782074
      952.000000       0.768942
      953.000000       0.749307
      954.000000       0.723111
      955.000000       0.696395
      956.000000       0.672360
      957.000000       0.652171
      958.000000       0.630761
      959.000000       0.604919
      960.000000       0.580858
      961.000000       0.560110
      962.000000       0.533754
      963.000000       0.500660
      964.000000       0.468804
      965.000000       0.439808
      966.000000       0.410591
      967.000000       0.378682
      968.000000       0.342314
      969.000000       0.305392
      970.000000       0.272245
      971.000000       0.241626
      972.000000       0.211867
      973.000000       0.182903
      974.000000       0.155321
      975.000000       0.130731
      976.000000       0.109877
      977.000000       0.091910
      978.000000       0.076511
      979.000000       0.064026
      980.000000       0.054102
      981.000000       0.045741
      982.000000       0.038483
      983.000000       0.032301
      984.000000       0.027121
      985.000000       0.022911
      986.000000       0.019474
      987.000000       0.016602
      988.000000       0.014188
      989.000000       0.012198
      990.000000       0.010525
      991.000000       0.009083
      992.000000       0.007896
      993.000000       0.007004
      994.000000       0.006185
      995.000000       0.005227
      996.000000       0.004323
      997.000000       0.003713
      998.000000       0.003344
      999.000000       0.003132
     1000.000000       0.003024
     1001.000000       0.002959
     1002.000000       0.002741
     1003.000000       0.002222
     1004.000000       0.001699
     1005.000000       0.001473
     1006.000000       0.001371
     1007.000000       0.001167
     1008.000000       0.000893
     1009.000000       0.000640
     1010.000000       0.000543
     1011.000000       0.000718
     1012.000000       0.000905
     1013.000000       0.000783
     1014.000000       0.000468
     1015.000000       0.000194
     1016.000000       0.000053
     1017.000000       0.000093
     1018.000000       0.000258
     1019.000000       0.000441
     1020.000000       0.000523
     1021.000000       0.000358
     1022.000000       0.000084
     1023.000000       0.000062
     1024.000000       0.000285
     1025.000000       0.000388
     1026.000000       0.000263
     1027.000000       0.000125
     1028.000000       0.000085
     1029.000000       0.000083
     1030.000000       0.000077
     1031.000000       0.000082
     1032.000000       0.000110
     1033.000000       0.000140
     1034.000000       0.000148
     1035.000000       0.000142
     1036.000000       0.000132
     1037.000000       0.000096
     1038.000000       0.000003
     1039.000000       0.000000
     1040.000000       0.000000
     1041.000000       0.000000
     1042.000000       0.000000
     1043.000000       0.000115
     1044.000000       0.000209
     1045.000000       0.000077
     1046.000000       0.000000
     1047.000000       0.000000
     1048.000000       0.000000
     1049.000000       0.000070
     1050.000000       0.000233
     1051.000000       0.000226
     1052.000000       0.000085
     1053.000000       0.000001
     1054.000000       0.000026
     1055.000000       0.000024
     1056.000000       0.000000
     1057.000000       0.000000
     1058.000000       0.000173
     1059.000000       0.000390
     1060.000000       0.000211
