03  , Filter noaa_11_avhrr_03.flt
Number of data points:
60
Wavenumber (cm-1)   Filter response
     2484.472000       0.000000
     2491.611300       0.003053
     2498.750600       0.007852
     2505.889900       0.017010
     2513.029200       0.039066
     2520.168500       0.085298
     2527.307800       0.170632
     2534.447100       0.311921
     2541.586400       0.496848
     2548.725700       0.674495
     2555.865000       0.806733
     2563.004300       0.897216
     2570.143600       0.955790
     2577.282900       0.987978
     2584.422200       0.997852
     2591.561500       0.994394
     2598.700800       0.991130
     2605.840100       0.995454
     2612.979400       1.000000
     2620.118700       0.996513
     2627.258000       0.985886
     2634.397300       0.973112
     2641.536600       0.962094
     2648.675900       0.955260
     2655.815200       0.954368
     2662.954500       0.958078
     2670.093800       0.964186
     2677.233100       0.969960
     2684.372400       0.972108
     2691.511700       0.968788
     2698.651000       0.964549
     2705.790300       0.965441
     2712.929600       0.972275
     2720.068900       0.979415
     2727.208200       0.981730
     2734.347500       0.979750
     2741.486800       0.976208
     2748.626100       0.972637
     2755.765400       0.968286
     2762.904700       0.962094
     2770.044000       0.951941
     2777.183300       0.934927
     2784.322600       0.909071
     2791.461900       0.877775
     2798.601200       0.846062
     2805.740500       0.811949
     2812.879800       0.757391
     2820.019100       0.662920
     2827.158400       0.530291
     2834.297700       0.386366
     2841.437000       0.258331
     2848.576300       0.157852
     2855.715600       0.085909
     2862.854900       0.042374
     2869.994200       0.020710
     2877.133500       0.011480
     2884.272800       0.006371
     2891.412100       0.002801
     2898.551400       0.000000
     2905.690700       0.000000
