22 , GT_F1_CFPA_RSR_Release1.0_Best_M16A_v3_ib_oob.txt
Number of data points:
801
Wavenumber (cm-1)   Filter response
      750.000000       0.000056
      750.250000       0.000057
      750.500000       0.000057
      750.750000       0.000058
      751.000000       0.000058
      751.250000       0.000059
      751.500000       0.000059
      751.750000       0.000060
      752.000000       0.000060
      752.250000       0.000061
      752.500000       0.000061
      752.750000       0.000062
      753.000000       0.000062
      753.250000       0.000063
      753.500000       0.000063
      753.750000       0.000064
      754.000000       0.000064
      754.250000       0.000065
      754.500000       0.000065
      754.750000       0.000066
      755.000000       0.000066
      755.250000       0.000067
      755.500000       0.000069
      755.750000       0.000078
      756.000000       0.000086
      756.250000       0.000095
      756.500000       0.000104
      756.750000       0.000113
      757.000000       0.000122
      757.250000       0.000130
      757.500000       0.000139
      757.750000       0.000148
      758.000000       0.000157
      758.250000       0.000166
      758.500000       0.000174
      758.750000       0.000183
      759.000000       0.000192
      759.250000       0.000201
      759.500000       0.000210
      759.750000       0.000218
      760.000000       0.000227
      760.250000       0.000236
      760.500000       0.000245
      760.750000       0.000254
      761.000000       0.000262
      761.250000       0.000271
      761.500000       0.000280
      761.750000       0.000289
      762.000000       0.000298
      762.250000       0.000306
      762.500000       0.000315
      762.750000       0.000324
      763.000000       0.000333
      763.250000       0.000343
      763.500000       0.000353
      763.750000       0.000363
      764.000000       0.000372
      764.250000       0.000382
      764.500000       0.000392
      764.750000       0.000402
      765.000000       0.000412
      765.250000       0.000422
      765.500000       0.000432
      765.750000       0.000442
      766.000000       0.000451
      766.250000       0.000461
      766.500000       0.000471
      766.750000       0.000481
      767.000000       0.000491
      767.250000       0.000501
      767.500000       0.000511
      767.750000       0.000521
      768.000000       0.000530
      768.250000       0.000540
      768.500000       0.000550
      768.750000       0.000560
      769.000000       0.000570
      769.250000       0.000580
      769.500000       0.000590
      769.750000       0.000600
      770.000000       0.000609
      770.250000       0.000619
      770.500000       0.000629
      770.750000       0.000656
      771.000000       0.000693
      771.250000       0.000730
      771.500000       0.000767
      771.750000       0.000805
      772.000000       0.000842
      772.250000       0.000879
      772.500000       0.000916
      772.750000       0.000953
      773.000000       0.000990
      773.250000       0.001028
      773.500000       0.001065
      773.750000       0.001102
      774.000000       0.001139
      774.250000       0.001176
      774.500000       0.001214
      774.750000       0.001251
      775.000000       0.001288
      775.250000       0.001325
      775.500000       0.001362
      775.750000       0.001399
      776.000000       0.001437
      776.250000       0.001474
      776.500000       0.001511
      776.750000       0.001548
      777.000000       0.001585
      777.250000       0.001622
      777.500000       0.001660
      777.750000       0.001697
      778.000000       0.001734
      778.250000       0.001771
      778.500000       0.001836
      778.750000       0.001945
      779.000000       0.002053
      779.250000       0.002161
      779.500000       0.002270
      779.750000       0.002378
      780.000000       0.002487
      780.250000       0.002595
      780.500000       0.002703
      780.750000       0.002812
      781.000000       0.002920
      781.250000       0.003028
      781.500000       0.003137
      781.750000       0.003245
      782.000000       0.003353
      782.250000       0.003462
      782.500000       0.003602
      782.750000       0.003763
      783.000000       0.003924
      783.250000       0.004084
      783.500000       0.004245
      783.750000       0.004406
      784.000000       0.004566
      784.250000       0.004727
      784.500000       0.004888
      784.750000       0.005048
      785.000000       0.005209
      785.250000       0.005370
      785.500000       0.005530
      785.750000       0.005691
      786.000000       0.005852
      786.250000       0.006013
      786.500000       0.006292
      786.750000       0.006651
      787.000000       0.007010
      787.250000       0.007369
      787.500000       0.007729
      787.750000       0.008088
      788.000000       0.008447
      788.250000       0.008807
      788.500000       0.009166
      788.750000       0.009525
      789.000000       0.009884
      789.250000       0.010244
      789.500000       0.010603
      789.750000       0.010962
      790.000000       0.011322
      790.250000       0.011681
      790.500000       0.012237
      790.750000       0.013072
      791.000000       0.013906
      791.250000       0.014740
      791.500000       0.015575
      791.750000       0.016409
      792.000000       0.017244
      792.250000       0.018078
      792.500000       0.018913
      792.750000       0.019747
      793.000000       0.020581
      793.250000       0.021416
      793.500000       0.022250
      793.750000       0.023085
      794.000000       0.023919
      794.250000       0.024753
      794.500000       0.025742
      794.750000       0.027634
      795.000000       0.029527
      795.250000       0.031420
      795.500000       0.033313
      795.750000       0.035205
      796.000000       0.037098
      796.250000       0.038991
      796.500000       0.040883
      796.750000       0.042776
      797.000000       0.044669
      797.250000       0.046562
      797.500000       0.048454
      797.750000       0.050347
      798.000000       0.052240
      798.250000       0.054132
      798.500000       0.056025
      798.750000       0.059640
      799.000000       0.064247
      799.250000       0.068854
      799.500000       0.073461
      799.750000       0.078068
      800.000000       0.082675
      800.250000       0.087282
      800.500000       0.091889
      800.750000       0.096496
      801.000000       0.101103
      801.250000       0.105710
      801.500000       0.110316
      801.750000       0.114923
      802.000000       0.119530
      802.250000       0.124137
      802.500000       0.128744
      802.750000       0.133351
      803.000000       0.142389
      803.250000       0.151515
      803.500000       0.160642
      803.750000       0.169768
      804.000000       0.178894
      804.250000       0.188021
      804.500000       0.197147
      804.750000       0.206273
      805.000000       0.215400
      805.250000       0.224526
      805.500000       0.233652
      805.750000       0.242779
      806.000000       0.251905
      806.250000       0.261031
      806.500000       0.270158
      806.750000       0.279284
      807.000000       0.288718
      807.250000       0.300567
      807.500000       0.312417
      807.750000       0.324267
      808.000000       0.336117
      808.250000       0.347967
      808.500000       0.359817
      808.750000       0.371666
      809.000000       0.383516
      809.250000       0.395366
      809.500000       0.407216
      809.750000       0.419066
      810.000000       0.430916
      810.250000       0.442765
      810.500000       0.454615
      810.750000       0.466465
      811.000000       0.478315
      811.250000       0.489888
      811.500000       0.498638
      811.750000       0.507388
      812.000000       0.516138
      812.250000       0.524888
      812.500000       0.533638
      812.750000       0.542388
      813.000000       0.551138
      813.250000       0.559888
      813.500000       0.568638
      813.750000       0.577388
      814.000000       0.586138
      814.250000       0.594888
      814.500000       0.603638
      814.750000       0.612388
      815.000000       0.621138
      815.250000       0.629888
      815.500000       0.638637
      815.750000       0.642695
      816.000000       0.646007
      816.250000       0.649318
      816.500000       0.652629
      816.750000       0.655940
      817.000000       0.659251
      817.250000       0.662562
      817.500000       0.665873
      817.750000       0.669184
      818.000000       0.672495
      818.250000       0.675806
      818.500000       0.679117
      818.750000       0.682428
      819.000000       0.685739
      819.250000       0.689050
      819.500000       0.692361
      819.750000       0.695673
      820.000000       0.698727
      820.250000       0.701553
      820.500000       0.704378
      820.750000       0.707203
      821.000000       0.710028
      821.250000       0.712853
      821.500000       0.715678
      821.750000       0.718503
      822.000000       0.721328
      822.250000       0.724153
      822.500000       0.726978
      822.750000       0.729804
      823.000000       0.732629
      823.250000       0.735454
      823.500000       0.738279
      823.750000       0.741104
      824.000000       0.743929
      824.250000       0.746754
      824.500000       0.750880
      824.750000       0.755090
      825.000000       0.759300
      825.250000       0.763510
      825.500000       0.767720
      825.750000       0.771930
      826.000000       0.776140
      826.250000       0.780350
      826.500000       0.784561
      826.750000       0.788771
      827.000000       0.792981
      827.250000       0.797191
      827.500000       0.801401
      827.750000       0.805611
      828.000000       0.809821
      828.250000       0.814031
      828.500000       0.818241
      828.750000       0.822505
      829.000000       0.827026
      829.250000       0.831547
      829.500000       0.836068
      829.750000       0.840589
      830.000000       0.845110
      830.250000       0.849632
      830.500000       0.854153
      830.750000       0.858674
      831.000000       0.863195
      831.250000       0.867716
      831.500000       0.872238
      831.750000       0.876759
      832.000000       0.881280
      832.250000       0.885801
      832.500000       0.890322
      832.750000       0.894844
      833.000000       0.899365
      833.250000       0.903810
      833.500000       0.907929
      833.750000       0.912048
      834.000000       0.916166
      834.250000       0.920285
      834.500000       0.924404
      834.750000       0.928523
      835.000000       0.932642
      835.250000       0.936760
      835.500000       0.940879
      835.750000       0.944998
      836.000000       0.949117
      836.250000       0.953235
      836.500000       0.957354
      836.750000       0.961473
      837.000000       0.965592
      837.250000       0.969710
      837.500000       0.973829
      837.750000       0.977587
      838.000000       0.978832
      838.250000       0.980077
      838.500000       0.981322
      838.750000       0.982568
      839.000000       0.983813
      839.250000       0.985058
      839.500000       0.986303
      839.750000       0.987548
      840.000000       0.988793
      840.250000       0.990039
      840.500000       0.991284
      840.750000       0.992529
      841.000000       0.993774
      841.250000       0.995019
      841.500000       0.996264
      841.750000       0.997510
      842.000000       0.998755
      842.250000       1.000000
      842.500000       0.999432
      842.750000       0.998023
      843.000000       0.996614
      843.250000       0.995205
      843.500000       0.993797
      843.750000       0.992388
      844.000000       0.990979
      844.250000       0.989570
      844.500000       0.988161
      844.750000       0.986752
      845.000000       0.985344
      845.250000       0.983935
      845.500000       0.982526
      845.750000       0.981117
      846.000000       0.979708
      846.250000       0.978299
      846.500000       0.976890
      846.750000       0.975482
      847.000000       0.974197
      847.250000       0.973637
      847.500000       0.973077
      847.750000       0.972516
      848.000000       0.971956
      848.250000       0.971396
      848.500000       0.970835
      848.750000       0.970275
      849.000000       0.969715
      849.250000       0.969154
      849.500000       0.968594
      849.750000       0.968034
      850.000000       0.967473
      850.250000       0.966913
      850.500000       0.966353
      850.750000       0.965793
      851.000000       0.965232
      851.250000       0.964672
      851.500000       0.964112
      851.750000       0.963738
      852.000000       0.963589
      852.250000       0.963441
      852.500000       0.963293
      852.750000       0.963144
      853.000000       0.962996
      853.250000       0.962848
      853.500000       0.962699
      853.750000       0.962551
      854.000000       0.962403
      854.250000       0.962254
      854.500000       0.962106
      854.750000       0.961957
      855.000000       0.961809
      855.250000       0.961661
      855.500000       0.961512
      855.750000       0.961364
      856.000000       0.961216
      856.250000       0.961067
      856.500000       0.960266
      856.750000       0.958602
      857.000000       0.956938
      857.250000       0.955274
      857.500000       0.953611
      857.750000       0.951947
      858.000000       0.950283
      858.250000       0.948619
      858.500000       0.946955
      858.750000       0.945291
      859.000000       0.943627
      859.250000       0.941964
      859.500000       0.940300
      859.750000       0.938636
      860.000000       0.936972
      860.250000       0.935308
      860.500000       0.933645
      860.750000       0.931981
      861.000000       0.930317
      861.250000       0.928184
      861.500000       0.924815
      861.750000       0.921447
      862.000000       0.918079
      862.250000       0.914711
      862.500000       0.911343
      862.750000       0.907975
      863.000000       0.904606
      863.250000       0.901238
      863.500000       0.897870
      863.750000       0.894502
      864.000000       0.891134
      864.250000       0.887766
      864.500000       0.884398
      864.750000       0.881030
      865.000000       0.877661
      865.250000       0.874293
      865.500000       0.870925
      865.750000       0.867557
      866.000000       0.864189
      866.250000       0.859071
      866.500000       0.853755
      866.750000       0.848439
      867.000000       0.843123
      867.250000       0.837807
      867.500000       0.832491
      867.750000       0.827175
      868.000000       0.821859
      868.250000       0.816543
      868.500000       0.811227
      868.750000       0.805911
      869.000000       0.800595
      869.250000       0.795279
      869.500000       0.789963
      869.750000       0.784647
      870.000000       0.779331
      870.250000       0.774015
      870.500000       0.768699
      870.750000       0.763383
      871.000000       0.756373
      871.250000       0.745586
      871.500000       0.734798
      871.750000       0.724010
      872.000000       0.713222
      872.250000       0.702434
      872.500000       0.691646
      872.750000       0.680858
      873.000000       0.670070
      873.250000       0.659282
      873.500000       0.648495
      873.750000       0.637707
      874.000000       0.626919
      874.250000       0.616131
      874.500000       0.605343
      874.750000       0.594555
      875.000000       0.583767
      875.250000       0.572979
      875.500000       0.562192
      875.750000       0.551404
      876.000000       0.539970
      876.250000       0.527765
      876.500000       0.515559
      876.750000       0.503354
      877.000000       0.491148
      877.250000       0.478943
      877.500000       0.466738
      877.750000       0.454532
      878.000000       0.442327
      878.250000       0.430122
      878.500000       0.417916
      878.750000       0.405711
      879.000000       0.393505
      879.250000       0.381300
      879.500000       0.369095
      879.750000       0.356889
      880.000000       0.344684
      880.250000       0.332479
      880.500000       0.320273
      880.750000       0.308068
      881.000000       0.297513
      881.250000       0.289087
      881.500000       0.280661
      881.750000       0.272235
      882.000000       0.263809
      882.250000       0.255383
      882.500000       0.246957
      882.750000       0.238531
      883.000000       0.230105
      883.250000       0.221679
      883.500000       0.213253
      883.750000       0.204827
      884.000000       0.196401
      884.250000       0.187975
      884.500000       0.179549
      884.750000       0.171123
      885.000000       0.162697
      885.250000       0.154271
      885.500000       0.145845
      885.750000       0.137419
      886.000000       0.129523
      886.250000       0.125712
      886.500000       0.121901
      886.750000       0.118091
      887.000000       0.114280
      887.250000       0.110469
      887.500000       0.106658
      887.750000       0.102847
      888.000000       0.099036
      888.250000       0.095225
      888.500000       0.091415
      888.750000       0.087604
      889.000000       0.083793
      889.250000       0.079982
      889.500000       0.076171
      889.750000       0.072360
      890.000000       0.068549
      890.250000       0.064738
      890.500000       0.060928
      890.750000       0.057117
      891.000000       0.053306
      891.250000       0.050865
      891.500000       0.049401
      891.750000       0.047938
      892.000000       0.046474
      892.250000       0.045011
      892.500000       0.043547
      892.750000       0.042084
      893.000000       0.040620
      893.250000       0.039157
      893.500000       0.037693
      893.750000       0.036230
      894.000000       0.034766
      894.250000       0.033303
      894.500000       0.031839
      894.750000       0.030376
      895.000000       0.028912
      895.250000       0.027449
      895.500000       0.025985
      895.750000       0.024522
      896.000000       0.023058
      896.250000       0.021595
      896.500000       0.020862
      896.750000       0.020295
      897.000000       0.019729
      897.250000       0.019162
      897.500000       0.018596
      897.750000       0.018029
      898.000000       0.017463
      898.250000       0.016896
      898.500000       0.016330
      898.750000       0.015763
      899.000000       0.015197
      899.250000       0.014630
      899.500000       0.014064
      899.750000       0.013497
      900.000000       0.012931
      900.250000       0.012364
      900.500000       0.011798
      900.750000       0.011231
      901.000000       0.010665
      901.250000       0.010098
      901.500000       0.009532
      901.750000       0.009297
      902.000000       0.009173
      902.250000       0.009049
      902.500000       0.008925
      902.750000       0.008801
      903.000000       0.008677
      903.250000       0.008553
      903.500000       0.008429
      903.750000       0.008306
      904.000000       0.008182
      904.250000       0.008058
      904.500000       0.007934
      904.750000       0.007810
      905.000000       0.007686
      905.250000       0.007562
      905.500000       0.007438
      905.750000       0.007314
      906.000000       0.007190
      906.250000       0.007067
      906.500000       0.006943
      906.750000       0.006819
      907.000000       0.006695
      907.250000       0.006571
      907.500000       0.006447
      907.750000       0.006323
      908.000000       0.006199
      908.250000       0.006075
      908.500000       0.005951
      908.750000       0.005828
      909.000000       0.005704
      909.250000       0.005580
      909.500000       0.005456
      909.750000       0.005332
      910.000000       0.005208
      910.250000       0.005084
      910.500000       0.004960
      910.750000       0.004836
      911.000000       0.004713
      911.250000       0.004589
      911.500000       0.004465
      911.750000       0.004341
      912.000000       0.004217
      912.250000       0.004093
      912.500000       0.003969
      912.750000       0.003845
      913.000000       0.003721
      913.250000       0.003597
      913.500000       0.003474
      913.750000       0.003350
      914.000000       0.003226
      914.250000       0.003102
      914.500000       0.002978
      914.750000       0.002854
      915.000000       0.002730
      915.250000       0.002606
      915.500000       0.002482
      915.750000       0.002358
      916.000000       0.002235
      916.250000       0.002111
      916.500000       0.001987
      916.750000       0.001863
      917.000000       0.001739
      917.250000       0.001615
      917.500000       0.001491
      917.750000       0.001393
      918.000000       0.001374
      918.250000       0.001356
      918.500000       0.001337
      918.750000       0.001318
      919.000000       0.001299
      919.250000       0.001280
      919.500000       0.001261
      919.750000       0.001243
      920.000000       0.001224
      920.250000       0.001205
      920.500000       0.001186
      920.750000       0.001167
      921.000000       0.001148
      921.250000       0.001129
      921.500000       0.001111
      921.750000       0.001092
      922.000000       0.001073
      922.250000       0.001054
      922.500000       0.001035
      922.750000       0.001016
      923.000000       0.000998
      923.250000       0.000979
      923.500000       0.000960
      923.750000       0.000941
      924.000000       0.000922
      924.250000       0.000903
      924.500000       0.000885
      924.750000       0.000866
      925.000000       0.000847
      925.250000       0.000828
      925.500000       0.000809
      925.750000       0.000790
      926.000000       0.000772
      926.250000       0.000753
      926.500000       0.000734
      926.750000       0.000715
      927.000000       0.000696
      927.250000       0.000677
      927.500000       0.000658
      927.750000       0.000640
      928.000000       0.000621
      928.250000       0.000602
      928.500000       0.000583
      928.750000       0.000564
      929.000000       0.000557
      929.250000       0.000550
      929.500000       0.000544
      929.750000       0.000538
      930.000000       0.000531
      930.250000       0.000525
      930.500000       0.000518
      930.750000       0.000512
      931.000000       0.000505
      931.250000       0.000499
      931.500000       0.000493
      931.750000       0.000486
      932.000000       0.000480
      932.250000       0.000473
      932.500000       0.000467
      932.750000       0.000460
      933.000000       0.000454
      933.250000       0.000448
      933.500000       0.000441
      933.750000       0.000435
      934.000000       0.000428
      934.250000       0.000422
      934.500000       0.000415
      934.750000       0.000409
      935.000000       0.000403
      935.250000       0.000396
      935.500000       0.000390
      935.750000       0.000383
      936.000000       0.000377
      936.250000       0.000370
      936.500000       0.000364
      936.750000       0.000357
      937.000000       0.000351
      937.250000       0.000345
      937.500000       0.000338
      937.750000       0.000332
      938.000000       0.000325
      938.250000       0.000319
      938.500000       0.000312
      938.750000       0.000306
      939.000000       0.000300
      939.250000       0.000293
      939.500000       0.000287
      939.750000       0.000280
      940.000000       0.000274
      940.250000       0.000269
      940.500000       0.000266
      940.750000       0.000263
      941.000000       0.000260
      941.250000       0.000257
      941.500000       0.000254
      941.750000       0.000251
      942.000000       0.000248
      942.250000       0.000245
      942.500000       0.000242
      942.750000       0.000239
      943.000000       0.000236
      943.250000       0.000233
      943.500000       0.000230
      943.750000       0.000226
      944.000000       0.000223
      944.250000       0.000220
      944.500000       0.000217
      944.750000       0.000214
      945.000000       0.000211
      945.250000       0.000208
      945.500000       0.000205
      945.750000       0.000202
      946.000000       0.000199
      946.250000       0.000196
      946.500000       0.000193
      946.750000       0.000190
      947.000000       0.000187
      947.250000       0.000184
      947.500000       0.000181
      947.750000       0.000178
      948.000000       0.000174
      948.250000       0.000171
      948.500000       0.000168
      948.750000       0.000165
      949.000000       0.000162
      949.250000       0.000159
      949.500000       0.000156
      949.750000       0.000153
      950.000000       0.000150
