2,   channel 2 SRF from file SRF_SSH-1_Delivery_220520/SRF_DMSP-F4_SSH_Chan02.asc received June 2022 from SPASCIA
Number of data points:
471
Wavenumber (cm-1)   Filter response
      333.300000       0.003400
      333.400000       0.003500
      333.500000       0.003600
      333.600000       0.003600
      333.700000       0.003700
      333.800000       0.003700
      333.900000       0.003900
      334.000000       0.004100
      334.100000       0.004300
      334.200000       0.004500
      334.300000       0.004700
      334.400000       0.004800
      334.500000       0.004900
      334.600000       0.005000
      334.700000       0.005200
      334.800000       0.005300
      334.900000       0.005500
      335.000000       0.005700
      335.100000       0.005900
      335.200000       0.006000
      335.300000       0.006200
      335.400000       0.006500
      335.500000       0.006700
      335.600000       0.007000
      335.700000       0.007200
      335.800000       0.007500
      335.900000       0.007700
      336.000000       0.008000
      336.100000       0.008200
      336.200000       0.008500
      336.300000       0.008700
      336.400000       0.009000
      336.500000       0.009300
      336.600000       0.009700
      336.700000       0.010000
      336.800000       0.010300
      336.900000       0.010700
      337.000000       0.011000
      337.100000       0.011400
      337.200000       0.011800
      337.300000       0.012100
      337.400000       0.012500
      337.500000       0.012900
      337.600000       0.013300
      337.700000       0.013600
      337.800000       0.014000
      337.900000       0.014500
      338.000000       0.015000
      338.100000       0.015500
      338.200000       0.016000
      338.300000       0.016500
      338.400000       0.017100
      338.500000       0.017800
      338.600000       0.018400
      338.700000       0.019000
      338.800000       0.019600
      338.900000       0.020300
      339.000000       0.021000
      339.100000       0.021700
      339.200000       0.022400
      339.300000       0.023100
      339.400000       0.023900
      339.500000       0.024700
      339.600000       0.025500
      339.700000       0.026300
      339.800000       0.027100
      339.900000       0.027900
      340.000000       0.028700
      340.100000       0.029500
      340.200000       0.030300
      340.300000       0.031200
      340.400000       0.032400
      340.500000       0.033600
      340.600000       0.034900
      340.700000       0.036100
      340.800000       0.037400
      340.900000       0.039300
      341.000000       0.041100
      341.100000       0.043000
      341.200000       0.044900
      341.300000       0.046700
      341.400000       0.048600
      341.500000       0.050500
      341.600000       0.052300
      341.700000       0.054200
      341.800000       0.056100
      341.900000       0.058600
      342.000000       0.061100
      342.100000       0.063600
      342.200000       0.066000
      342.300000       0.068500
      342.400000       0.071700
      342.500000       0.074800
      342.600000       0.077900
      342.700000       0.081000
      342.800000       0.084100
      342.900000       0.087200
      343.000000       0.090300
      343.100000       0.093500
      343.200000       0.096600
      343.300000       0.099700
      343.400000       0.104000
      343.500000       0.108400
      343.600000       0.112800
      343.700000       0.117100
      343.800000       0.121500
      343.900000       0.127700
      344.000000       0.134000
      344.100000       0.140200
      344.200000       0.146400
      344.300000       0.152600
      344.400000       0.160100
      344.500000       0.167600
      344.600000       0.175100
      344.700000       0.182600
      344.800000       0.190000
      344.900000       0.200000
      345.000000       0.210000
      345.100000       0.219900
      345.200000       0.229900
      345.300000       0.239900
      345.400000       0.251100
      345.500000       0.262300
      345.600000       0.273500
      345.700000       0.284700
      345.800000       0.296000
      345.900000       0.300300
      346.000000       0.304700
      346.100000       0.309000
      346.200000       0.313400
      346.300000       0.317800
      346.400000       0.336400
      346.500000       0.355100
      346.600000       0.373800
      346.700000       0.392500
      346.800000       0.411200
      346.900000       0.427400
      347.000000       0.443600
      347.100000       0.459800
      347.200000       0.476000
      347.300000       0.492200
      347.400000       0.507200
      347.500000       0.522100
      347.600000       0.537100
      347.700000       0.552000
      347.800000       0.567000
      347.900000       0.580100
      348.000000       0.593100
      348.100000       0.606200
      348.200000       0.619300
      348.300000       0.632400
      348.400000       0.646700
      348.500000       0.661100
      348.600000       0.675400
      348.700000       0.689700
      348.800000       0.704000
      348.900000       0.715300
      349.000000       0.726500
      349.100000       0.737700
      349.200000       0.748900
      349.300000       0.760100
      349.400000       0.773200
      349.500000       0.786300
      349.600000       0.799400
      349.700000       0.812500
      349.800000       0.825500
      349.900000       0.836100
      350.000000       0.846700
      350.100000       0.857300
      350.200000       0.867900
      350.300000       0.878500
      350.400000       0.885400
      350.500000       0.892200
      350.600000       0.899100
      350.700000       0.905900
      350.800000       0.912800
      350.900000       0.917100
      351.000000       0.921500
      351.100000       0.925900
      351.200000       0.930200
      351.300000       0.934600
      351.400000       0.938300
      351.500000       0.942100
      351.600000       0.945800
      351.700000       0.949500
      351.800000       0.953300
      351.900000       0.955800
      352.000000       0.958300
      352.100000       0.960700
      352.200000       0.963200
      352.300000       0.965700
      352.400000       0.968800
      352.500000       0.972000
      352.600000       0.975100
      352.700000       0.978200
      352.800000       0.981300
      352.900000       0.983200
      353.000000       0.985000
      353.100000       0.986900
      353.200000       0.988800
      353.300000       0.990700
      353.400000       0.991900
      353.500000       0.993100
      353.600000       0.994400
      353.700000       0.995600
      353.800000       0.996900
      353.900000       0.997500
      354.000000       0.998100
      354.100000       0.998800
      354.200000       0.999400
      354.300000       1.000000
      354.400000       0.999400
      354.500000       0.998800
      354.600000       0.998100
      354.700000       0.997500
      354.800000       0.996900
      354.900000       0.996300
      355.000000       0.995600
      355.100000       0.995000
      355.200000       0.994400
      355.300000       0.993800
      355.400000       0.993100
      355.500000       0.992500
      355.600000       0.991900
      355.700000       0.991300
      355.800000       0.990700
      355.900000       0.989400
      356.000000       0.988200
      356.100000       0.986900
      356.200000       0.985700
      356.300000       0.984400
      356.400000       0.983200
      356.500000       0.981900
      356.600000       0.980700
      356.700000       0.979400
      356.800000       0.978200
      356.900000       0.975700
      357.000000       0.973200
      357.100000       0.970700
      357.200000       0.968200
      357.300000       0.965700
      357.400000       0.962600
      357.500000       0.959500
      357.600000       0.956400
      357.700000       0.953300
      357.800000       0.950200
      357.900000       0.945200
      358.000000       0.940200
      358.100000       0.935200
      358.200000       0.930200
      358.300000       0.925200
      358.400000       0.920900
      358.500000       0.916500
      358.600000       0.912100
      358.700000       0.907800
      358.800000       0.903400
      358.900000       0.897200
      359.000000       0.891000
      359.100000       0.884700
      359.200000       0.878500
      359.300000       0.872300
      359.400000       0.866000
      359.500000       0.859800
      359.600000       0.853600
      359.700000       0.847400
      359.800000       0.841100
      359.900000       0.833000
      360.000000       0.824900
      360.100000       0.816800
      360.200000       0.808700
      360.300000       0.800600
      360.400000       0.791300
      360.500000       0.781900
      360.600000       0.772600
      360.700000       0.763200
      360.800000       0.753900
      360.900000       0.742700
      361.000000       0.731500
      361.100000       0.720200
      361.200000       0.709000
      361.300000       0.697800
      361.400000       0.682900
      361.500000       0.667900
      361.600000       0.653000
      361.700000       0.638000
      361.800000       0.623100
      361.900000       0.606900
      362.000000       0.590700
      362.100000       0.574500
      362.200000       0.558300
      362.300000       0.542100
      362.400000       0.525900
      362.500000       0.509700
      362.600000       0.493500
      362.700000       0.477300
      362.800000       0.461100
      362.900000       0.446700
      363.000000       0.432400
      363.100000       0.418100
      363.200000       0.403700
      363.300000       0.389400
      363.400000       0.375100
      363.500000       0.360700
      363.600000       0.346400
      363.700000       0.332100
      363.800000       0.317800
      363.900000       0.305900
      364.000000       0.294100
      364.100000       0.282200
      364.200000       0.270400
      364.300000       0.258600
      364.400000       0.249800
      364.500000       0.241100
      364.600000       0.232400
      364.700000       0.223700
      364.800000       0.215000
      364.900000       0.206200
      365.000000       0.197500
      365.100000       0.188800
      365.200000       0.180100
      365.300000       0.171300
      365.400000       0.165100
      365.500000       0.158900
      365.600000       0.152600
      365.700000       0.146400
      365.800000       0.140200
      365.900000       0.135800
      366.000000       0.131500
      366.100000       0.127100
      366.200000       0.122700
      366.300000       0.118400
      366.400000       0.114600
      366.500000       0.110900
      366.600000       0.107200
      366.700000       0.103400
      366.800000       0.099700
      366.900000       0.096600
      367.000000       0.093500
      367.100000       0.090300
      367.200000       0.087200
      367.300000       0.084100
      367.400000       0.081600
      367.500000       0.079100
      367.600000       0.076600
      367.700000       0.074100
      367.800000       0.071700
      367.900000       0.069200
      368.000000       0.066700
      368.100000       0.064200
      368.200000       0.061700
      368.300000       0.059200
      368.400000       0.057300
      368.500000       0.055500
      368.600000       0.053600
      368.700000       0.051700
      368.800000       0.049800
      368.900000       0.048000
      369.000000       0.046100
      369.100000       0.044200
      369.200000       0.042400
      369.300000       0.040500
      369.400000       0.039300
      369.500000       0.038000
      369.600000       0.036800
      369.700000       0.035500
      369.800000       0.034300
      369.900000       0.033300
      370.000000       0.032400
      370.100000       0.031500
      370.200000       0.030500
      370.300000       0.029600
      370.400000       0.028600
      370.500000       0.027600
      370.600000       0.026600
      370.700000       0.025600
      370.800000       0.024600
      370.900000       0.024000
      371.000000       0.023500
      371.100000       0.022900
      371.200000       0.022400
      371.300000       0.021800
      371.400000       0.021400
      371.500000       0.020900
      371.600000       0.020500
      371.700000       0.020100
      371.800000       0.019600
      371.900000       0.019200
      372.000000       0.018800
      372.100000       0.018300
      372.200000       0.017900
      372.300000       0.017400
      372.400000       0.017100
      372.500000       0.016800
      372.600000       0.016500
      372.700000       0.016200
      372.800000       0.015900
      372.900000       0.015500
      373.000000       0.015100
      373.100000       0.014800
      373.200000       0.014400
      373.300000       0.014000
      373.400000       0.013800
      373.500000       0.013500
      373.600000       0.013300
      373.700000       0.013000
      373.800000       0.012800
      373.900000       0.012500
      374.000000       0.012300
      374.100000       0.012000
      374.200000       0.011800
      374.300000       0.011500
      374.400000       0.011300
      374.500000       0.011000
      374.600000       0.010800
      374.700000       0.010500
      374.800000       0.010300
      374.900000       0.010100
      375.000000       0.009900
      375.100000       0.009700
      375.200000       0.009500
      375.300000       0.009300
      375.400000       0.009200
      375.500000       0.009000
      375.600000       0.008800
      375.700000       0.008600
      375.800000       0.008400
      375.900000       0.008200
      376.000000       0.008000
      376.100000       0.007900
      376.200000       0.007700
      376.300000       0.007500
      376.400000       0.007300
      376.500000       0.007100
      376.600000       0.006900
      376.700000       0.006700
      376.800000       0.006500
      376.900000       0.006400
      377.000000       0.006300
      377.100000       0.006200
      377.200000       0.006000
      377.300000       0.005900
      377.400000       0.005800
      377.500000       0.005700
      377.600000       0.005500
      377.700000       0.005400
      377.800000       0.005300
      377.900000       0.005200
      378.000000       0.005000
      378.100000       0.004900
      378.200000       0.004800
      378.300000       0.004700
      378.400000       0.004600
      378.500000       0.004500
      378.600000       0.004500
      378.700000       0.004400
      378.800000       0.004400
      378.900000       0.004200
      379.000000       0.004100
      379.100000       0.004000
      379.200000       0.003900
      379.300000       0.003700
      379.400000       0.003700
      379.500000       0.003600
      379.600000       0.003600
      379.700000       0.003500
      379.800000       0.003400
      379.900000       0.003400
      380.000000       0.003300
      380.100000       0.003200
      380.200000       0.003200
      380.300000       0.003100
