1,   channel 1 SRF from file SRF_SSH-1_Delivery_220520/SRF_DMSP-F2_SSH_Chan01.asc received June 2022 from SPASCIA
Number of data points:
336
Wavenumber (cm-1)   Filter response
      337.500000       0.004100
      337.600000       0.004300
      337.700000       0.004400
      337.800000       0.004600
      337.900000       0.004800
      338.000000       0.005000
      338.100000       0.005200
      338.200000       0.005300
      338.300000       0.005500
      338.400000       0.005700
      338.500000       0.005900
      338.600000       0.006200
      338.700000       0.006400
      338.800000       0.006700
      338.900000       0.007000
      339.000000       0.007200
      339.100000       0.007600
      339.200000       0.008000
      339.300000       0.008300
      339.400000       0.008700
      339.500000       0.009000
      339.600000       0.009500
      339.700000       0.010000
      339.800000       0.010400
      339.900000       0.010900
      340.000000       0.011300
      340.100000       0.011800
      340.200000       0.012200
      340.300000       0.012700
      340.400000       0.013100
      340.500000       0.013600
      340.600000       0.014200
      340.700000       0.014800
      340.800000       0.015500
      340.900000       0.016100
      341.000000       0.016700
      341.100000       0.017500
      341.200000       0.018200
      341.300000       0.018900
      341.400000       0.019600
      341.500000       0.020400
      341.600000       0.021200
      341.700000       0.022000
      341.800000       0.022800
      341.900000       0.023600
      342.000000       0.024400
      342.100000       0.025600
      342.200000       0.026800
      342.300000       0.028000
      342.400000       0.029100
      342.500000       0.030300
      342.600000       0.031700
      342.700000       0.033000
      342.800000       0.034400
      342.900000       0.035700
      343.000000       0.037100
      343.100000       0.038700
      343.200000       0.040400
      343.300000       0.042000
      343.400000       0.043600
      343.500000       0.045200
      343.600000       0.047100
      343.700000       0.048900
      343.800000       0.050700
      343.900000       0.052500
      344.000000       0.054300
      344.100000       0.057000
      344.200000       0.059700
      344.300000       0.062400
      344.400000       0.065200
      344.500000       0.067900
      344.600000       0.071500
      344.700000       0.075100
      344.800000       0.078700
      344.900000       0.082400
      345.000000       0.086000
      345.100000       0.090500
      345.200000       0.095000
      345.300000       0.099500
      345.400000       0.104100
      345.500000       0.108600
      345.600000       0.112200
      345.700000       0.115800
      345.800000       0.119500
      345.900000       0.123100
      346.000000       0.126700
      346.100000       0.132100
      346.200000       0.137600
      346.300000       0.143000
      346.400000       0.148400
      346.500000       0.153800
      346.600000       0.161100
      346.700000       0.168300
      346.800000       0.175600
      346.900000       0.182800
      347.000000       0.190000
      347.100000       0.198200
      347.200000       0.206300
      347.300000       0.214500
      347.400000       0.222600
      347.500000       0.230800
      347.600000       0.239800
      347.700000       0.248900
      347.800000       0.257900
      347.900000       0.267000
      348.000000       0.276000
      348.100000       0.288700
      348.200000       0.301400
      348.300000       0.314000
      348.400000       0.326700
      348.500000       0.339400
      348.600000       0.349300
      348.700000       0.359300
      348.800000       0.369200
      348.900000       0.379200
      349.000000       0.389100
      349.100000       0.401800
      349.200000       0.414500
      349.300000       0.427100
      349.400000       0.439800
      349.500000       0.452500
      349.600000       0.466100
      349.700000       0.479600
      349.800000       0.493200
      349.900000       0.506800
      350.000000       0.520400
      350.100000       0.537600
      350.200000       0.554800
      350.300000       0.571900
      350.400000       0.589100
      350.500000       0.606300
      350.600000       0.620800
      350.700000       0.635300
      350.800000       0.649800
      350.900000       0.664300
      351.000000       0.678700
      351.100000       0.690500
      351.200000       0.702300
      351.300000       0.714000
      351.400000       0.725800
      351.500000       0.737600
      351.600000       0.752000
      351.700000       0.766500
      351.800000       0.781000
      351.900000       0.795500
      352.000000       0.810000
      352.100000       0.822600
      352.200000       0.835300
      352.300000       0.848000
      352.400000       0.860600
      352.500000       0.873300
      352.600000       0.884200
      352.700000       0.895000
      352.800000       0.905900
      352.900000       0.916700
      353.000000       0.927600
      353.100000       0.934800
      353.200000       0.942100
      353.300000       0.949300
      353.400000       0.956600
      353.500000       0.963800
      353.600000       0.968300
      353.700000       0.972900
      353.800000       0.977400
      353.900000       0.981900
      354.000000       0.986400
      354.100000       0.988200
      354.200000       0.990000
      354.300000       0.991900
      354.400000       0.993700
      354.500000       0.995500
      354.600000       0.996400
      354.700000       0.997300
      354.800000       0.998200
      354.900000       0.999100
      355.000000       1.000000
      355.100000       0.998200
      355.200000       0.996400
      355.300000       0.994600
      355.400000       0.992800
      355.500000       0.991000
      355.600000       0.987300
      355.700000       0.983700
      355.800000       0.980100
      355.900000       0.976500
      356.000000       0.972900
      356.100000       0.968300
      356.200000       0.963800
      356.300000       0.959300
      356.400000       0.954800
      356.500000       0.950200
      356.600000       0.944800
      356.700000       0.939400
      356.800000       0.933900
      356.900000       0.928500
      357.000000       0.923100
      357.100000       0.917600
      357.200000       0.912200
      357.300000       0.906800
      357.400000       0.901400
      357.500000       0.895900
      357.600000       0.885100
      357.700000       0.874200
      357.800000       0.863300
      357.900000       0.852500
      358.000000       0.841600
      358.100000       0.830800
      358.200000       0.819900
      358.300000       0.809000
      358.400000       0.798200
      358.500000       0.787300
      358.600000       0.775600
      358.700000       0.763800
      358.800000       0.752000
      358.900000       0.740300
      359.000000       0.728500
      359.100000       0.714000
      359.200000       0.699500
      359.300000       0.685100
      359.400000       0.670600
      359.500000       0.656100
      359.600000       0.638000
      359.700000       0.619900
      359.800000       0.601800
      359.900000       0.583700
      360.000000       0.565600
      360.100000       0.552000
      360.200000       0.538500
      360.300000       0.524900
      360.400000       0.511300
      360.500000       0.497700
      360.600000       0.479600
      360.700000       0.461500
      360.800000       0.443400
      360.900000       0.425300
      361.000000       0.407200
      361.100000       0.391000
      361.200000       0.374700
      361.300000       0.358400
      361.400000       0.342100
      361.500000       0.325800
      361.600000       0.313100
      361.700000       0.300500
      361.800000       0.287800
      361.900000       0.275100
      362.000000       0.262400
      362.100000       0.251600
      362.200000       0.240700
      362.300000       0.229900
      362.400000       0.219000
      362.500000       0.208100
      362.600000       0.200000
      362.700000       0.191900
      362.800000       0.183700
      362.900000       0.175600
      363.000000       0.167400
      363.100000       0.161100
      363.200000       0.154800
      363.300000       0.148400
      363.400000       0.142100
      363.500000       0.135700
      363.600000       0.129400
      363.700000       0.123100
      363.800000       0.116700
      363.900000       0.110400
      364.000000       0.104100
      364.100000       0.099500
      364.200000       0.095000
      364.300000       0.090500
      364.400000       0.086000
      364.500000       0.081400
      364.600000       0.078700
      364.700000       0.076000
      364.800000       0.073300
      364.900000       0.070600
      365.000000       0.067900
      365.100000       0.065200
      365.200000       0.062400
      365.300000       0.059700
      365.400000       0.057000
      365.500000       0.054300
      365.600000       0.051800
      365.700000       0.049200
      365.800000       0.046700
      365.900000       0.044200
      366.000000       0.041600
      366.100000       0.039900
      366.200000       0.038200
      366.300000       0.036500
      366.400000       0.034800
      366.500000       0.033000
      366.600000       0.031600
      366.700000       0.030100
      366.800000       0.028700
      366.900000       0.027200
      367.000000       0.025800
      367.100000       0.024800
      367.200000       0.023800
      367.300000       0.022800
      367.400000       0.021800
      367.500000       0.020800
      367.600000       0.019900
      367.700000       0.019000
      367.800000       0.018100
      367.900000       0.017200
      368.000000       0.016300
      368.100000       0.015600
      368.200000       0.014800
      368.300000       0.014100
      368.400000       0.013400
      368.500000       0.012700
      368.600000       0.012100
      368.700000       0.011600
      368.800000       0.011000
      368.900000       0.010500
      369.000000       0.010000
      369.100000       0.009600
      369.200000       0.009200
      369.300000       0.008900
      369.400000       0.008500
      369.500000       0.008100
      369.600000       0.007800
      369.700000       0.007400
      369.800000       0.007100
      369.900000       0.006700
      370.000000       0.006300
      370.100000       0.006100
      370.200000       0.005800
      370.300000       0.005500
      370.400000       0.005200
      370.500000       0.005000
      370.600000       0.004800
      370.700000       0.004600
      370.800000       0.004400
      370.900000       0.004300
      371.000000       0.004100
