5,   channel 5 SRF from file SRF_SIRS-D_Ch05.asc received July 2019 from Carsten Stanfuss
Number of data points:
281
Wavenumber (cm-1)   Filter response
      694.000000       0.000000
      694.050000       0.000000
      694.100000       0.000000
      694.150000       0.000000
      694.200000       0.000000
      694.250000       0.000000
      694.300000       0.000000
      694.350000       0.000000
      694.400000       0.000000
      694.450000       0.000000
      694.500000       0.000000
      694.550000       0.000000
      694.600000       0.000000
      694.650000       0.000000
      694.700000       0.000000
      694.750000       0.000000
      694.800000       0.000000
      694.850000       0.000000
      694.900000       0.000000
      694.950000       0.000000
      695.000000       0.000000
      695.050000       0.000000
      695.100000       0.000000
      695.150000       0.000000
      695.200000       0.000000
      695.250000       0.000000
      695.300000       0.000000
      695.350000       0.000000
      695.400000       0.000000
      695.450000       0.000000
      695.500000       0.000000
      695.550000       0.006000
      695.600000       0.016000
      695.650000       0.026000
      695.700000       0.036000
      695.750000       0.046000
      695.800000       0.056000
      695.850000       0.066000
      695.900000       0.076000
      695.950000       0.086000
      696.000000       0.096000
      696.050000       0.106000
      696.100000       0.116000
      696.150000       0.126000
      696.200000       0.136000
      696.250000       0.146000
      696.300000       0.156000
      696.350000       0.166000
      696.400000       0.176000
      696.450000       0.186000
      696.500000       0.196000
      696.550000       0.206000
      696.600000       0.216000
      696.650000       0.226000
      696.700000       0.236000
      696.750000       0.246000
      696.800000       0.256000
      696.850000       0.266000
      696.900000       0.276000
      696.950000       0.286000
      697.000000       0.296000
      697.050000       0.306000
      697.100000       0.316000
      697.150000       0.326000
      697.200000       0.336000
      697.250000       0.346000
      697.300000       0.356000
      697.350000       0.366000
      697.400000       0.376000
      697.450000       0.386000
      697.500000       0.396000
      697.550000       0.406000
      697.600000       0.416000
      697.650000       0.426000
      697.700000       0.436000
      697.750000       0.446000
      697.800000       0.456000
      697.850000       0.466000
      697.900000       0.476000
      697.950000       0.486000
      698.000000       0.496000
      698.050000       0.506000
      698.100000       0.516000
      698.150000       0.526000
      698.200000       0.536000
      698.250000       0.546000
      698.300000       0.556000
      698.350000       0.566000
      698.400000       0.576000
      698.450000       0.586000
      698.500000       0.596000
      698.550000       0.606000
      698.600000       0.616000
      698.650000       0.626000
      698.700000       0.636000
      698.750000       0.646000
      698.800000       0.656000
      698.850000       0.666000
      698.900000       0.676000
      698.950000       0.686000
      699.000000       0.696000
      699.050000       0.706000
      699.100000       0.716000
      699.150000       0.726000
      699.200000       0.736000
      699.250000       0.746000
      699.300000       0.756000
      699.350000       0.766000
      699.400000       0.776000
      699.450000       0.786000
      699.500000       0.796000
      699.550000       0.806000
      699.600000       0.816000
      699.650000       0.826000
      699.700000       0.836000
      699.750000       0.846000
      699.800000       0.856000
      699.850000       0.866000
      699.900000       0.876000
      699.950000       0.886000
      700.000000       0.896000
      700.050000       0.906000
      700.100000       0.916000
      700.150000       0.926000
      700.200000       0.936000
      700.250000       0.946000
      700.300000       0.956000
      700.350000       0.966000
      700.400000       0.976000
      700.450000       0.986000
      700.500000       0.996000
      700.550000       1.000000
      700.600000       1.000000
      700.650000       1.000000
      700.700000       1.000000
      700.750000       1.000000
      700.800000       1.000000
      700.850000       1.000000
      700.900000       1.000000
      700.950000       1.000000
      701.000000       1.000000
      701.050000       1.000000
      701.100000       1.000000
      701.150000       1.000000
      701.200000       1.000000
      701.250000       1.000000
      701.300000       1.000000
      701.350000       1.000000
      701.400000       1.000000
      701.450000       1.000000
      701.500000       0.996000
      701.550000       0.986000
      701.600000       0.976000
      701.650000       0.966000
      701.700000       0.956000
      701.750000       0.946000
      701.800000       0.936000
      701.850000       0.926000
      701.900000       0.916000
      701.950000       0.906000
      702.000000       0.896000
      702.050000       0.886000
      702.100000       0.876000
      702.150000       0.866000
      702.200000       0.856000
      702.250000       0.846000
      702.300000       0.836000
      702.350000       0.826000
      702.400000       0.816000
      702.450000       0.806000
      702.500000       0.796000
      702.550000       0.786000
      702.600000       0.776000
      702.650000       0.766000
      702.700000       0.756000
      702.750000       0.746000
      702.800000       0.736000
      702.850000       0.726000
      702.900000       0.716000
      702.950000       0.706000
      703.000000       0.696000
      703.050000       0.686000
      703.100000       0.676000
      703.150000       0.666000
      703.200000       0.656000
      703.250000       0.646000
      703.300000       0.636000
      703.350000       0.626000
      703.400000       0.616000
      703.450000       0.606000
      703.500000       0.596000
      703.550000       0.586000
      703.600000       0.576000
      703.650000       0.566000
      703.700000       0.556000
      703.750000       0.546000
      703.800000       0.536000
      703.850000       0.526000
      703.900000       0.516000
      703.950000       0.506000
      704.000000       0.496000
      704.050000       0.486000
      704.100000       0.476000
      704.150000       0.466000
      704.200000       0.456000
      704.250000       0.446000
      704.300000       0.436000
      704.350000       0.426000
      704.400000       0.416000
      704.450000       0.406000
      704.500000       0.396000
      704.550000       0.386000
      704.600000       0.376000
      704.650000       0.366000
      704.700000       0.356000
      704.750000       0.346000
      704.800000       0.336000
      704.850000       0.326000
      704.900000       0.316000
      704.950000       0.306000
      705.000000       0.296000
      705.050000       0.286000
      705.100000       0.276000
      705.150000       0.266000
      705.200000       0.256000
      705.250000       0.246000
      705.300000       0.236000
      705.350000       0.226000
      705.400000       0.216000
      705.450000       0.206000
      705.500000       0.196000
      705.550000       0.186000
      705.600000       0.176000
      705.650000       0.166000
      705.700000       0.156000
      705.750000       0.146000
      705.800000       0.136000
      705.850000       0.126000
      705.900000       0.116000
      705.950000       0.106000
      706.000000       0.096000
      706.050000       0.086000
      706.100000       0.076000
      706.150000       0.066000
      706.200000       0.056000
      706.250000       0.046000
      706.300000       0.036000
      706.350000       0.026000
      706.400000       0.016000
      706.450000       0.006000
      706.500000       0.000000
      706.550000       0.000000
      706.600000       0.000000
      706.650000       0.000000
      706.700000       0.000000
      706.750000       0.000000
      706.800000       0.000000
      706.850000       0.000000
      706.900000       0.000000
      706.950000       0.000000
      707.000000       0.000000
      707.050000       0.000000
      707.100000       0.000000
      707.150000       0.000000
      707.200000       0.000000
      707.250000       0.000000
      707.300000       0.000000
      707.350000       0.000000
      707.400000       0.000000
      707.450000       0.000000
      707.500000       0.000000
      707.550000       0.000000
      707.600000       0.000000
      707.650000       0.000000
      707.700000       0.000000
      707.750000       0.000000
      707.800000       0.000000
      707.850000       0.000000
      707.900000       0.000000
      707.950000       0.000000
      708.000000       0.000000
