3,    channel 3 SRF extracted from FY-3G_MERSI-RM.zip(FY3G_MERSI-RM_SRF_CH03.txt) (received Nov 2023)
Number of data points:
546
Wavenumber (cm-1)   Filter response
    10106.107000       0.001182
    10108.163400       0.001234
    10110.200200       0.001292
    10112.239800       0.001344
    10114.297600       0.001396
    10116.338900       0.001454
    10118.379000       0.001525
    10120.441300       0.001596
    10122.486100       0.001667
    10124.531700       0.001738
    10126.577200       0.001809
    10128.642900       0.001874
    10130.691000       0.001938
    10132.739900       0.002003
    10134.790700       0.002074
    10136.842300       0.002158
    10138.894700       0.002242
    10140.966500       0.002339
    10143.021700       0.002468
    10145.078700       0.002617
    10147.134500       0.002778
    10149.193100       0.002972
    10151.251600       0.003166
    10153.310900       0.003321
    10155.373100       0.003450
    10157.435200       0.003560
    10159.499100       0.003644
    10161.562800       0.003734
    10163.628300       0.003864
    10165.696800       0.004032
    10167.763000       0.004219
    10169.831100       0.004426
    10171.901100       0.004652
    10173.972900       0.004878
    10176.044600       0.005091
    10178.117000       0.005330
    10180.190400       0.005608
    10182.266600       0.005880
    10184.342700       0.006170
    10186.420700       0.006508
    10188.480800       0.006836
    10190.558300       0.007139
    10192.639900       0.007482
    10194.722300       0.007850
    10196.805500       0.008193
    10198.869800       0.008533
    10200.955800       0.008923
    10203.041500       0.009323
    10205.128200       0.009685
    10207.198000       0.010065
    10209.288400       0.010526
    10211.378600       0.010977
    10213.470700       0.011406
    10215.542800       0.011934
    10217.637700       0.012567
    10219.731400       0.013189
    10221.809200       0.013852
    10223.906600       0.014634
    10225.986100       0.015387
    10228.085300       0.016081
    10230.185300       0.016848
    10232.268400       0.017671
    10234.370100       0.018466
    10236.454900       0.019308
    10238.560500       0.020269
    10240.646000       0.021195
    10242.754300       0.022117
    10244.860400       0.023154
    10246.951500       0.024287
    10249.043600       0.025452
    10251.154300       0.026775
    10253.248000       0.028183
    10255.360500       0.029566
    10257.457000       0.030923
    10259.572300       0.032331
    10261.670500       0.033643
    10263.788600       0.034954
    10265.888600       0.036472
    10267.990400       0.038132
    10270.111100       0.039865
    10272.214700       0.041809
    10274.320200       0.044075
    10276.442500       0.046295
    10278.549700       0.048456
    10280.657800       0.050881
    10282.786900       0.053594
    10284.895700       0.056357
    10287.007500       0.059422
    10289.120200       0.062998
    10291.234700       0.066581
    10293.366100       0.069812
    10295.481300       0.073017
    10297.597500       0.076349
    10299.716600       0.079363
    10301.834500       0.082574
    10303.974500       0.086538
    10306.096200       0.090401
    10308.217800       0.093940
    10310.341300       0.097794
    10312.466700       0.101901
    10314.592000       0.105846
    10316.718100       0.110152
    10318.846200       0.115217
    10320.974000       0.120474
    10323.124100       0.125463
    10325.254800       0.130616
    10327.386400       0.136399
    10329.520000       0.142239
    10331.655400       0.147998
    10333.789700       0.154205
    10335.907700       0.160682
    10338.065100       0.166883
    10340.184800       0.172844
    10342.324700       0.179682
    10344.466600       0.187541
    10346.609300       0.195909
    10348.750800       0.205028
    10350.896400       0.214637
    10353.041800       0.223532
    10355.188100       0.231845
    10357.336400       0.239717
    10359.466200       0.246324
    10361.617300       0.253163
    10363.768300       0.261150
    10365.919000       0.268264
    10368.073900       0.275263
    10370.209200       0.284434
    10372.365900       0.293898
    10374.522300       0.302321
    10376.680800       0.312185
    10378.819700       0.322737
    10380.979900       0.331092
    10383.141000       0.338502
    10385.305200       0.347861
    10387.448700       0.357632
    10389.613600       0.366684
    10391.761100       0.377715
    10393.927800       0.391263
    10396.094300       0.402560
    10398.245500       0.411132
    10400.416000       0.419796
    10402.588500       0.427777
    10404.741300       0.433555
    10406.915600       0.439967
    10409.070200       0.448875
    10411.248500       0.458606
    10413.404900       0.466143
    10415.583900       0.474184
    10417.745300       0.485180
    10419.926100       0.496569
    10422.088300       0.507628
    10424.271000       0.522102
    10426.436000       0.537229
    10428.621600       0.547549
    10430.787300       0.556177
    10432.975800       0.566636
    10435.145600       0.575682
    10437.315200       0.584315
    10439.506300       0.597474
    10441.677700       0.612682
    10443.871900       0.626887
    10446.048400       0.641729
    10448.223600       0.657081
    10450.420400       0.670187
    10452.599700       0.679394
    10454.778700       0.686042
    10456.979400       0.690821
    10459.160300       0.692125
    10461.343100       0.691560
    10463.528000       0.695134
    10465.732400       0.703949
    10467.919100       0.714333
    10470.107800       0.727212
    10472.295300       0.742442
    10474.486900       0.755520
    10476.697000       0.763691
    10478.888300       0.771152
    10481.082700       0.781724
    10483.275900       0.791642
    10485.472100       0.798983
    10487.669300       0.806491
    10489.887200       0.812414
    10492.085100       0.813397
    10494.287200       0.813183
    10496.488100       0.815645
    10498.689900       0.819906
    10500.893700       0.826153
    10503.098400       0.833585
    10505.305200       0.841648
    10507.511800       0.848498
    10509.720400       0.853123
    10511.931000       0.855118
    10514.140400       0.855654
    10516.352900       0.856923
    10518.566400       0.859754
    10520.779600       0.863151
    10522.996100       0.866917
    10525.212300       0.872353
    10527.429500       0.877308
    10529.648700       0.879510
    10531.868900       0.882073
    10534.070000       0.887377
    10536.293100       0.891648
    10538.517200       0.893798
    10540.741100       0.897302
    10542.967000       0.900761
    10545.193900       0.900298
    10547.402800       0.899760
    10549.632700       0.900592
    10551.863500       0.899389
    10554.094200       0.896122
    10556.328000       0.895953
    10558.541600       0.898737
    10560.776200       0.903014
    10563.012800       0.910667
    10565.232500       0.922925
    10567.470000       0.936605
    10569.708300       0.948558
    10571.929800       0.958190
    10574.173400       0.965560
    10576.416800       0.969110
    10578.662400       0.967212
    10580.887600       0.962940
    10583.136100       0.960924
    10585.362100       0.962400
    10587.611400       0.964907
    10589.862800       0.968214
    10592.094900       0.971752
    10594.348200       0.971835
    10596.581200       0.964478
    10598.837500       0.954492
    10601.073400       0.947546
    10603.330600       0.941899
    10605.570700       0.937696
    10607.828600       0.940124
    10610.071700       0.947700
    10612.336000       0.953856
    10614.577700       0.958242
    10616.843900       0.963080
    10619.088600       0.965357
    10621.356800       0.963534
    10623.605700       0.960372
    10625.853200       0.957006
    10628.125400       0.954180
    10630.377100       0.952005
    10632.647900       0.950181
    10634.904900       0.951826
    10637.159500       0.957883
    10639.436500       0.963090
    10641.694200       0.967220
    10643.952800       0.973092
    10646.233800       0.976374
    10648.495500       0.975800
    10650.759300       0.975917
    10653.020600       0.975677
    10655.309000       0.973043
    10657.573300       0.971437
    10659.841000       0.969369
    10662.108400       0.965810
    10664.399600       0.965495
    10666.668900       0.967726
    10668.942700       0.969267
    10671.216300       0.970949
    10673.490900       0.971153
    10675.788100       0.966157
    10678.063400       0.957754
    10680.342100       0.948930
    10682.620500       0.943315
    10684.901100       0.941164
    10687.182600       0.942186
    10689.466300       0.947925
    10691.750900       0.956090
    10694.035400       0.961582
    10696.322000       0.965523
    10698.609600       0.969491
    10700.899300       0.969617
    10703.210600       0.967762
    10705.480500       0.969131
    10707.774200       0.974460
    10710.069000       0.979718
    10712.383100       0.986247
    10714.659200       0.993989
    10716.958100       0.998671
    10719.255600       0.997811
    10721.555300       0.995325
    10723.857100       0.993023
    10726.160000       0.988992
    10728.462600       0.983617
    10730.768600       0.979348
    10733.074300       0.976959
    10735.382300       0.974469
    10737.669300       0.971460
    10739.979200       0.971468
    10742.291300       0.976114
    10744.602000       0.980594
    10746.916000       0.983703
    10749.231100       0.987562
    10751.525200       0.989116
    10753.843300       0.983625
    10756.160200       0.976400
    10758.480400       0.971620
    10760.779600       0.966764
    10763.102900       0.961765
    10765.424900       0.961581
    10767.750300       0.964645
    10770.054600       0.966490
    10772.383100       0.967815
    10774.711500       0.968858
    10777.017600       0.965979
    10779.350300       0.957171
    10781.682800       0.946801
    10783.994200       0.939034
    10786.328800       0.935055
    10788.643400       0.935071
    10790.979900       0.939967
    10793.318600       0.948325
    10795.636200       0.956870
    10797.977000       0.962818
    10800.298900       0.967677
    10802.641700       0.972541
    10804.964400       0.973401
    10807.309200       0.969300
    10809.635200       0.964038
    10811.982000       0.956705
    10814.312300       0.947721
    10816.662300       0.942497
    10818.992300       0.941170
    10821.345500       0.942442
    10823.678700       0.945592
    10826.035100       0.946545
    10828.370300       0.944663
    10830.707700       0.944232
    10833.066000       0.943211
    10835.406600       0.943406
    10837.768100       0.950390
    10840.109600       0.960198
    10842.453200       0.965678
    10844.817800       0.967279
    10847.163500       0.964253
    10849.510100       0.951938
    10851.881400       0.933396
    10854.230100       0.916337
    10856.581000       0.903891
    10858.932900       0.897199
    10861.305900       0.897795
    10863.661100       0.904191
    10866.017200       0.911475
    10868.374400       0.914124
    10870.753900       0.911071
    10873.113200       0.905059
    10875.473400       0.897189
    10877.833600       0.888723
    10880.197100       0.882344
    10882.582900       0.875996
    10884.949700       0.866923
    10887.317500       0.855232
    10889.685100       0.840710
    10892.054900       0.824584
    10894.425800       0.809587
    10896.796500       0.797784
    10899.193300       0.789782
    10901.567200       0.786144
    10903.942300       0.785577
    10906.320700       0.786424
    10908.699000       0.785382
    10911.077100       0.779280
    10913.458700       0.768725
    10915.840100       0.754774
    10918.224900       0.740654
    10920.609600       0.729892
    10922.995300       0.721735
    10925.382000       0.715006
    10927.771000       0.711051
    10930.159900       0.706865
    10932.553400       0.698057
    10934.944300       0.688283
    10937.337500       0.679300
    10939.732900       0.667908
    10942.106600       0.654897
    10944.502900       0.644361
    10946.902700       0.635366
    10949.303500       0.624722
    10951.704200       0.613963
    10954.108300       0.604551
    10956.511100       0.594436
    10958.895700       0.581935
    10961.301800       0.568950
    10963.707700       0.555776
    10966.118300       0.540568
    10968.528800       0.523843
    10970.918600       0.508358
    10973.330000       0.494301
    10975.744800       0.481464
    10978.160700       0.470097
    10980.556000       0.460105
    10982.972800       0.450797
    10985.393100       0.441423
    10987.790300       0.430560
    10990.213900       0.417652
    10992.637400       0.404544
    10995.061900       0.391047
    10997.465700       0.376947
    10999.892400       0.363921
    11002.299600       0.353003
    11004.728400       0.341311
    11007.160700       0.328509
    11009.572300       0.316854
    11012.004300       0.305437
    11014.438600       0.292810
    11016.854600       0.280913
    11019.289800       0.270532
    11021.707900       0.259598
    11024.150200       0.247769
    11026.568000       0.237146
    11029.011200       0.227844
    11031.432300       0.218766
    11033.877600       0.210294
    11036.302200       0.203518
    11038.752100       0.197122
    11041.178700       0.189951
    11043.627200       0.182217
    11046.058400       0.174705
    11048.513900       0.166521
    11050.943600       0.157892
    11053.376900       0.149877
    11055.834400       0.142794
    11058.272200       0.135850
    11060.730700       0.129236
    11063.170700       0.123841
    11065.610600       0.118877
    11068.074700       0.113620
    11070.518000       0.108596
    11072.963500       0.103712
    11075.431000       0.098399
    11077.876300       0.092864
    11080.323800       0.087611
    11082.795800       0.083014
    11085.246800       0.079052
    11087.700000       0.075353
    11090.153200       0.072125
    11092.630800       0.069214
    11095.087300       0.066003
    11097.543700       0.062590
    11100.002500       0.059436
    11102.485700       0.056330
    11104.946600       0.053132
    11107.409900       0.050169
    11109.873000       0.047526
    11112.337200       0.044943
    11114.806200       0.042426
    11117.297300       0.040269
    11119.767200       0.038479
    11122.235800       0.036742
    11124.709200       0.035089
    11127.180000       0.033631
    11129.654400       0.032133
    11132.133500       0.030484
    11134.607600       0.028921
    11137.087700       0.027517
    11139.567800       0.026129
    11142.073700       0.024785
    11144.554700       0.023675
    11147.039300       0.022647
    11149.524900       0.021581
    11152.011700       0.020587
    11154.498400       0.019703
    11156.988600       0.018810
    11159.480000       0.017899
    11161.972500       0.017053
    11164.466100       0.016265
    11166.937100       0.015465
    11169.431700       0.014651
    11171.928600       0.013940
    11174.429200       0.013300
    11176.928300       0.012622
    11179.432300       0.011972
    11181.932500       0.011427
    11184.437500       0.010884
    11186.943700       0.010316
    11189.427200       0.009848
    11191.935500       0.009461
    11194.445000       0.009048
    11196.955700       0.008651
    11199.468700       0.008333
    11201.981600       0.008036
    11204.473000       0.007735
    11206.990700       0.007469
    11209.509400       0.007216
    11212.026800       0.006945
    11214.525200       0.006650
    11217.047400       0.006333
    11219.570700       0.006041
    11222.095100       0.005788
    11224.596800       0.005551
    11227.124700       0.005363
    11229.653800       0.005220
    11232.160100       0.005047
    11234.692700       0.004859
    11237.225200       0.004684
    11239.736200       0.004498
    11242.272200       0.004309
    11244.808100       0.004147
    11247.325000       0.004006
    11249.863200       0.003890
    11252.379700       0.003768
    11254.924000       0.003631
    11257.466900       0.003527
    11259.989400       0.003431
    11262.537200       0.003307
    11265.062000       0.003199
    11267.610700       0.003101
    11270.136500       0.002986
    11272.690100       0.002862
    11275.220700       0.002746
    11277.775300       0.002649
    11280.308200       0.002578
    11282.865200       0.002507
    11285.400300       0.002443
    11287.959600       0.002404
    11290.498300       0.002371
    11293.063700       0.002332
    11295.602200       0.002294
    11298.169900       0.002255
    11300.714500       0.002210
    11303.260300       0.002158
    11305.828900       0.002106
    11308.377000       0.002061
    11310.926200       0.002010
    11313.500800       0.001945
    11316.053600       0.001867
    11318.630700       0.001776
    11321.184500       0.001693
    11323.742000       0.001628
    11326.299500       0.001577
    11328.882400       0.001525
    11331.443500       0.001480
    11334.004400       0.001434
    11336.593400       0.001369
    11339.156700       0.001299
    11341.723600       0.001253
    11344.290500       0.001228
    11346.882900       0.001208
    11349.453400       0.001208
    11352.025000       0.001208
    11354.597800       0.001189
    11357.171800       0.001163
