03 , goes_10_sounder_03.flt
Number of data points:
427
Wavenumber (cm-1)   Filter response
      698.400000       0.002998
      698.500000       0.003339
      698.600000       0.003651
      698.700000       0.003938
      698.800000       0.004210
      698.900000       0.004475
      699.000000       0.004738
      699.100000       0.005007
      699.200000       0.005291
      699.300000       0.005596
      699.400000       0.005923
      699.500000       0.006268
      699.600000       0.006655
      699.700000       0.007095
      699.800000       0.007584
      699.900000       0.008114
      700.000000       0.008697
      700.100000       0.009325
      700.200000       0.009990
      700.300000       0.010691
      700.400000       0.011421
      700.500000       0.012194
      700.600000       0.013007
      700.700000       0.013837
      700.800000       0.014674
      700.900000       0.015553
      701.000000       0.016472
      701.100000       0.017413
      701.200000       0.018386
      701.300000       0.019406
      701.400000       0.020473
      701.500000       0.021603
      701.600000       0.022817
      701.700000       0.024134
      701.800000       0.025558
      701.900000       0.027066
      702.000000       0.028704
      702.100000       0.030527
      702.200000       0.032492
      702.300000       0.034521
      702.400000       0.036668
      702.500000       0.038948
      702.600000       0.041362
      702.700000       0.043845
      702.800000       0.046430
      702.900000       0.049158
      703.000000       0.052018
      703.100000       0.055013
      703.200000       0.058214
      703.300000       0.061732
      703.400000       0.065584
      703.500000       0.069814
      703.600000       0.074554
      703.700000       0.079980
      703.800000       0.086228
      703.900000       0.093405
      704.000000       0.101561
      704.100000       0.110457
      704.200000       0.119593
      704.300000       0.128592
      704.400000       0.137705
      704.500000       0.146718
      704.600000       0.155685
      704.700000       0.164617
      704.800000       0.173489
      704.900000       0.182817
      705.000000       0.193146
      705.100000       0.204965
      705.200000       0.218879
      705.300000       0.234804
      705.400000       0.251679
      705.500000       0.268074
      705.600000       0.283763
      705.700000       0.299677
      705.800000       0.315775
      705.900000       0.332167
      706.000000       0.348821
      706.100000       0.365442
      706.200000       0.381814
      706.300000       0.397850
      706.400000       0.413509
      706.500000       0.428487
      706.600000       0.444377
      706.700000       0.461924
      706.800000       0.479741
      706.900000       0.497700
      707.000000       0.517138
      707.100000       0.537651
      707.200000       0.559290
      707.300000       0.581928
      707.400000       0.604675
      707.500000       0.626326
      707.600000       0.646651
      707.700000       0.666033
      707.800000       0.684458
      707.900000       0.700980
      708.000000       0.715420
      708.100000       0.729327
      708.200000       0.743390
      708.300000       0.758119
      708.400000       0.773861
      708.500000       0.790266
      708.600000       0.805915
      708.700000       0.819640
      708.800000       0.831935
      708.900000       0.844190
      709.000000       0.857361
      709.100000       0.870788
      709.200000       0.883580
      709.300000       0.894913
      709.400000       0.904770
      709.500000       0.913245
      709.600000       0.920603
      709.700000       0.927166
      709.800000       0.933109
      709.900000       0.938596
      710.000000       0.943900
      710.100000       0.949320
      710.200000       0.954490
      710.300000       0.959378
      710.400000       0.964647
      710.500000       0.969442
      710.600000       0.972680
      710.700000       0.975202
      710.800000       0.977538
      710.900000       0.979332
      711.000000       0.980868
      711.100000       0.982391
      711.200000       0.983528
      711.300000       0.984517
      711.400000       0.986070
      711.500000       0.988252
      711.600000       0.990724
      711.700000       0.992695
      711.800000       0.994244
      711.900000       0.995784
      712.000000       0.997185
      712.100000       0.998387
      712.200000       0.999432
      712.300000       0.999968
      712.400000       0.999789
      712.500000       0.999286
      712.600000       0.998766
      712.700000       0.998461
      712.800000       0.998346
      712.900000       0.998251
      713.000000       0.997697
      713.100000       0.997040
      713.200000       0.997019
      713.300000       0.997265
      713.400000       0.997523
      713.500000       0.997900
      713.600000       0.998224
      713.700000       0.998443
      713.800000       0.999192
      713.900000       1.000000
      714.000000       0.999540
      714.100000       0.998800
      714.200000       0.998756
      714.300000       0.998820
      714.400000       0.998823
      714.500000       0.998834
      714.600000       0.998692
      714.700000       0.998486
      714.800000       0.998514
      714.900000       0.998358
      715.000000       0.997546
      715.100000       0.996899
      715.200000       0.996633
      715.300000       0.996082
      715.400000       0.995627
      715.500000       0.995552
      715.600000       0.994802
      715.700000       0.993488
      715.800000       0.992642
      715.900000       0.991709
      716.000000       0.990373
      716.100000       0.989529
      716.200000       0.988965
      716.300000       0.987658
      716.400000       0.985978
      716.500000       0.983613
      716.600000       0.978883
      716.700000       0.971590
      716.800000       0.963366
      716.900000       0.955711
      717.000000       0.949750
      717.100000       0.945944
      717.200000       0.943198
      717.300000       0.939985
      717.400000       0.934738
      717.500000       0.926389
      717.600000       0.915773
      717.700000       0.904302
      717.800000       0.892878
      717.900000       0.881110
      718.000000       0.868945
      718.100000       0.856403
      718.200000       0.842768
      718.300000       0.828235
      718.400000       0.813491
      718.500000       0.798426
      718.600000       0.782804
      718.700000       0.767324
      718.800000       0.752216
      718.900000       0.736711
      719.000000       0.720490
      719.100000       0.703461
      719.200000       0.685460
      719.300000       0.667147
      719.400000       0.648887
      719.500000       0.630705
      719.600000       0.612908
      719.700000       0.595269
      719.800000       0.577592
      719.900000       0.559704
      720.000000       0.541563
      720.100000       0.522475
      720.200000       0.501490
      720.300000       0.478862
      720.400000       0.455720
      720.500000       0.433021
      720.600000       0.411195
      720.700000       0.391004
      720.800000       0.372640
      720.900000       0.355102
      721.000000       0.337602
      721.100000       0.319767
      721.200000       0.301594
      721.300000       0.283534
      721.400000       0.265642
      721.500000       0.248155
      721.600000       0.232250
      721.700000       0.218995
      721.800000       0.207575
      721.900000       0.197426
      722.000000       0.188038
      722.100000       0.178850
      722.200000       0.169247
      722.300000       0.158618
      722.400000       0.146818
      722.500000       0.134659
      722.600000       0.122619
      722.700000       0.111564
      722.800000       0.102573
      722.900000       0.095518
      723.000000       0.089601
      723.100000       0.084033
      723.200000       0.078316
      723.300000       0.072248
      723.400000       0.066006
      723.500000       0.059965
      723.600000       0.054548
      723.700000       0.050097
      723.800000       0.046687
      723.900000       0.044036
      724.000000       0.041853
      724.100000       0.039780
      724.200000       0.037516
      724.300000       0.035043
      724.400000       0.032486
      724.500000       0.029919
      724.600000       0.027368
      724.700000       0.024929
      724.800000       0.022712
      724.900000       0.020805
      725.000000       0.019170
      725.100000       0.017751
      725.200000       0.016527
      725.300000       0.015441
      725.400000       0.014434
      725.500000       0.013482
      725.600000       0.012550
      725.700000       0.011631
      725.800000       0.010714
      725.900000       0.009803
      726.000000       0.008912
      726.100000       0.008056
      726.200000       0.007228
      726.300000       0.006426
      726.400000       0.005667
      726.500000       0.004969
      726.600000       0.004319
      726.700000       0.003733
      726.800000       0.003220
      726.900000       0.002772
      727.000000       0.002375
      727.100000       0.002024
      727.200000       0.001717
      727.300000       0.001454
      727.400000       0.001228
      727.500000       0.001031
      727.600000       0.000864
      727.700000       0.000724
      727.800000       0.000605
      727.900000       0.000504
      728.000000       0.000422
      728.100000       0.000356
      728.200000       0.000303
      728.300000       0.000261
      728.400000       0.000230
      728.500000       0.000209
      728.600000       0.000195
      728.700000       0.000188
      728.800000       0.000188
      728.900000       0.000193
      729.000000       0.000202
      729.100000       0.000216
      729.200000       0.000233
      729.300000       0.000252
      729.400000       0.000274
      729.500000       0.000298
      729.600000       0.000323
      729.700000       0.000349
      729.800000       0.000376
      729.900000       0.000403
      730.000000       0.000430
      730.100000       0.000456
      730.200000       0.000482
      730.300000       0.000507
      730.400000       0.000529
      730.500000       0.000549
      730.600000       0.000567
      730.700000       0.000581
      730.800000       0.000593
      730.900000       0.000601
      731.000000       0.000608
      731.100000       0.000612
      731.200000       0.000614
      731.300000       0.000614
      731.400000       0.000614
      731.500000       0.000612
      731.600000       0.000609
      731.700000       0.000605
      731.800000       0.000600
      731.900000       0.000594
      732.000000       0.000587
      732.100000       0.000580
      732.200000       0.000572
      732.300000       0.000564
      732.400000       0.000555
      732.500000       0.000546
      732.600000       0.000537
      732.700000       0.000527
      732.800000       0.000518
      732.900000       0.000508
      733.000000       0.000497
      733.100000       0.000487
      733.200000       0.000477
      733.300000       0.000467
      733.400000       0.000456
      733.500000       0.000445
      733.600000       0.000435
      733.700000       0.000424
      733.800000       0.000413
      733.900000       0.000403
      734.000000       0.000393
      734.100000       0.000382
      734.200000       0.000371
      734.300000       0.000360
      734.400000       0.000350
      734.500000       0.000339
      734.600000       0.000328
      734.700000       0.000318
      734.800000       0.000309
      734.900000       0.000298
      735.000000       0.000288
      735.100000       0.000279
      735.200000       0.000270
      735.300000       0.000261
      735.400000       0.000252
      735.500000       0.000244
      735.600000       0.000236
      735.700000       0.000229
      735.800000       0.000223
      735.900000       0.000216
      736.000000       0.000211
      736.100000       0.000205
      736.200000       0.000200
      736.300000       0.000195
      736.400000       0.000191
      736.500000       0.000186
      736.600000       0.000182
      736.700000       0.000178
      736.800000       0.000174
      736.900000       0.000170
      737.000000       0.000166
      737.100000       0.000162
      737.200000       0.000159
      737.300000       0.000155
      737.400000       0.000152
      737.500000       0.000148
      737.600000       0.000145
      737.700000       0.000142
      737.800000       0.000139
      737.900000       0.000136
      738.000000       0.000132
      738.100000       0.000129
      738.200000       0.000126
      738.300000       0.000123
      738.400000       0.000120
      738.500000       0.000117
      738.600000       0.000114
      738.700000       0.000111
      738.800000       0.000108
      738.900000       0.000105
      739.000000       0.000102
      739.100000       0.000099
      739.200000       0.000096
      739.300000       0.000094
      739.400000       0.000091
      739.500000       0.000088
      739.600000       0.000085
      739.700000       0.000083
      739.800000       0.000080
      739.900000       0.000078
      740.000000       0.000075
      740.100000       0.000072
      740.200000       0.000070
      740.300000       0.000068
      740.400000       0.000066
      740.500000       0.000063
      740.600000       0.000062
      740.700000       0.000060
      740.800000       0.000058
      740.900000       0.000056
      741.000000       0.000057
