  12  ,metop_1_hirs_12.flt    original file MTBH307srf.txt (Oct 6th, 2011) http://www.star.nesdis.noaa.gov/smcd/spb/calibration/hirs/hirssrf.html
Number of data points:
1377
Wavenumber (cm-1)   Filter response
     1488.200000       0.000000
     1488.300000       0.001626
     1488.400000       0.004876
     1488.500000       0.006498
     1488.600000       0.008119
     1488.700000       0.006492
     1488.800000       0.003244
     1488.900000       0.001621
     1489.000000       0.004862
     1489.100000       0.006479
     1489.200000       0.003238
     1489.300000       0.001618
     1489.400000       0.004853
     1489.500000       0.009701
     1489.600000       0.011312
     1489.700000       0.011306
     1489.800000       0.011301
     1489.900000       0.011296
     1490.000000       0.011290
     1490.100000       0.009672
     1490.200000       0.009667
     1490.300000       0.008052
     1490.400000       0.008047
     1490.500000       0.008043
     1490.600000       0.006431
     1490.700000       0.008035
     1490.800000       0.009637
     1490.900000       0.009631
     1491.000000       0.008022
     1491.100000       0.009621
     1491.200000       0.009616
     1491.300000       0.011213
     1491.400000       0.011207
     1491.500000       0.011201
     1491.600000       0.011195
     1491.700000       0.011189
     1491.800000       0.011183
     1491.900000       0.011178
     1492.000000       0.011172
     1492.100000       0.011169
     1492.200000       0.011166
     1492.300000       0.011163
     1492.400000       0.011160
     1492.500000       0.009563
     1492.600000       0.011154
     1492.700000       0.011151
     1492.800000       0.012741
     1492.900000       0.012738
     1493.000000       0.012735
     1493.100000       0.012731
     1493.200000       0.012728
     1493.300000       0.012725
     1493.400000       0.012722
     1493.500000       0.014308
     1493.600000       0.014305
     1493.700000       0.012712
     1493.800000       0.012709
     1493.900000       0.014294
     1494.000000       0.014290
     1494.100000       0.014277
     1494.200000       0.014264
     1494.300000       0.014252
     1494.400000       0.014239
     1494.500000       0.014226
     1494.600000       0.014213
     1494.700000       0.014200
     1494.800000       0.014187
     1494.900000       0.014174
     1495.000000       0.015735
     1495.100000       0.017292
     1495.200000       0.017277
     1495.300000       0.018830
     1495.400000       0.018813
     1495.500000       0.018796
     1495.600000       0.018778
     1495.700000       0.018761
     1495.800000       0.018744
     1495.900000       0.018727
     1496.000000       0.020269
     1496.100000       0.020252
     1496.200000       0.021793
     1496.300000       0.023331
     1496.400000       0.023312
     1496.500000       0.023293
     1496.600000       0.023274
     1496.700000       0.024806
     1496.800000       0.026335
     1496.900000       0.026314
     1497.000000       0.024746
     1497.100000       0.024726
     1497.200000       0.026250
     1497.300000       0.027771
     1497.400000       0.027749
     1497.500000       0.029266
     1497.600000       0.030782
     1497.700000       0.030756
     1497.800000       0.030731
     1497.900000       0.030706
     1498.000000       0.032215
     1498.100000       0.033732
     1498.200000       0.035248
     1498.300000       0.035230
     1498.400000       0.035212
     1498.500000       0.035195
     1498.600000       0.036706
     1498.700000       0.038216
     1498.800000       0.038197
     1498.900000       0.038178
     1499.000000       0.038158
     1499.100000       0.039664
     1499.200000       0.041169
     1499.300000       0.041147
     1499.400000       0.042649
     1499.500000       0.044150
     1499.600000       0.044127
     1499.700000       0.045625
     1499.800000       0.047121
     1499.900000       0.045578
     1500.000000       0.047072
     1500.100000       0.050080
     1500.200000       0.050051
     1500.300000       0.050022
     1500.400000       0.051508
     1500.500000       0.052992
     1500.600000       0.054474
     1500.700000       0.054443
     1500.800000       0.054411
     1500.900000       0.057400
     1501.000000       0.060386
     1501.100000       0.061859
     1501.200000       0.061823
     1501.300000       0.061786
     1501.400000       0.063256
     1501.500000       0.066229
     1501.600000       0.066190
     1501.700000       0.067654
     1501.800000       0.069117
     1501.900000       0.069076
     1502.000000       0.069035
     1502.100000       0.073489
     1502.200000       0.086931
     1502.300000       0.100355
     1502.400000       0.100290
     1502.500000       0.101720
     1502.600000       0.101654
     1502.700000       0.110552
     1502.800000       0.119438
     1502.900000       0.125328
     1503.000000       0.129720
     1503.100000       0.131125
     1503.200000       0.134017
     1503.300000       0.136905
     1503.400000       0.139790
     1503.500000       0.148615
     1503.600000       0.160398
     1503.700000       0.169198
     1503.800000       0.173537
     1503.900000       0.176388
     1504.000000       0.182197
     1504.100000       0.189440
     1504.200000       0.198150
     1504.300000       0.202411
     1504.400000       0.202237
     1504.500000       0.203537
     1504.600000       0.204835
     1504.700000       0.206131
     1504.800000       0.208895
     1504.900000       0.221943
     1505.000000       0.236437
     1505.100000       0.239167
     1505.200000       0.241893
     1505.300000       0.246078
     1505.400000       0.248791
     1505.500000       0.270509
     1505.600000       0.289267
     1505.700000       0.291935
     1505.800000       0.291682
     1505.900000       0.292886
     1506.000000       0.311558
     1506.100000       0.336096
     1506.200000       0.350424
     1506.300000       0.351657
     1506.400000       0.351435
     1506.500000       0.352665
     1506.600000       0.368396
     1506.700000       0.378310
     1506.800000       0.389660
     1506.900000       0.405338
     1507.000000       0.435463
     1507.100000       0.474225
     1507.200000       0.498488
     1507.300000       0.508281
     1507.400000       0.513732
     1507.500000       0.523502
     1507.600000       0.537583
     1507.700000       0.548766
     1507.800000       0.551297
     1507.900000       0.556702
     1508.000000       0.562100
     1508.100000       0.583367
     1508.200000       0.598868
     1508.300000       0.607175
     1508.400000       0.615474
     1508.500000       0.625199
     1508.600000       0.637779
     1508.700000       0.646049
     1508.800000       0.645720
     1508.900000       0.646822
     1509.000000       0.647921
     1509.100000       0.653310
     1509.200000       0.655835
     1509.300000       0.668354
     1509.400000       0.693707
     1509.500000       0.713327
     1509.600000       0.714388
     1509.700000       0.715449
     1509.800000       0.716507
     1509.900000       0.717564
     1510.000000       0.718619
     1510.100000       0.723845
     1510.200000       0.723379
     1510.300000       0.731434
     1510.400000       0.749414
     1510.500000       0.765951
     1510.600000       0.773961
     1510.700000       0.774877
     1510.800000       0.775790
     1510.900000       0.775287
     1511.000000       0.784680
     1511.100000       0.789822
     1511.200000       0.796368
     1511.300000       0.817016
     1511.400000       0.843275
     1511.500000       0.859635
     1511.600000       0.870339
     1511.700000       0.879621
     1511.800000       0.890296
     1511.900000       0.895334
     1512.000000       0.897555
     1512.100000       0.898460
     1512.200000       0.903571
     1512.300000       0.911481
     1512.400000       0.917979
     1512.500000       0.918867
     1512.600000       0.925352
     1512.700000       0.943022
     1512.800000       0.956476
     1512.900000       0.955938
     1513.000000       0.956797
     1513.100000       0.957648
     1513.200000       0.962683
     1513.300000       0.967711
     1513.400000       0.971337
     1513.500000       0.974959
     1513.600000       0.979968
     1513.700000       0.984971
     1513.800000       0.987186
     1513.900000       0.989397
     1514.000000       0.991605
     1514.100000       0.992618
     1514.200000       0.993630
     1514.300000       0.993269
     1514.400000       0.994299
     1514.500000       0.995328
     1514.600000       0.996355
     1514.700000       0.995996
     1514.800000       0.994251
     1514.900000       0.993892
     1515.000000       0.993532
     1515.100000       0.993162
     1515.200000       0.992793
     1515.300000       0.992422
     1515.400000       0.993433
     1515.500000       0.991680
     1515.600000       0.989928
     1515.700000       0.988177
     1515.800000       0.985047
     1515.900000       0.983298
     1516.000000       0.981550
     1516.100000       0.978324
     1516.200000       0.976477
     1516.300000       0.974631
     1516.400000       0.972787
     1516.500000       0.970944
     1516.600000       0.970477
     1516.700000       0.967262
     1516.800000       0.964049
     1516.900000       0.959467
     1517.000000       0.957632
     1517.100000       0.955796
     1517.200000       0.953962
     1517.300000       0.949389
     1517.400000       0.944820
     1517.500000       0.941624
     1517.600000       0.939799
     1517.700000       0.936608
     1517.800000       0.932053
     1517.900000       0.928868
     1518.000000       0.927051
     1518.100000       0.924089
     1518.200000       0.919763
     1518.300000       0.916804
     1518.400000       0.913847
     1518.500000       0.909527
     1518.600000       0.905209
     1518.700000       0.900894
     1518.800000       0.896581
     1518.900000       0.892270
     1519.000000       0.887961
     1519.100000       0.883652
     1519.200000       0.880707
     1519.300000       0.876402
     1519.400000       0.872100
     1519.500000       0.869160
     1519.600000       0.866222
     1519.700000       0.863285
     1519.800000       0.860350
     1519.900000       0.858776
     1520.000000       0.858560
     1520.100000       0.858392
     1520.200000       0.855508
     1520.300000       0.852626
     1520.400000       0.849744
     1520.500000       0.848221
     1520.600000       0.846699
     1520.700000       0.845178
     1520.800000       0.845014
     1520.900000       0.844851
     1521.000000       0.844689
     1521.100000       0.844518
     1521.200000       0.842991
     1521.300000       0.842822
     1521.400000       0.842654
     1521.500000       0.843840
     1521.600000       0.843674
     1521.700000       0.843508
     1521.800000       0.843343
     1521.900000       0.843179
     1522.000000       0.843015
     1522.100000       0.843127
     1522.200000       0.843238
     1522.300000       0.843351
     1522.400000       0.843464
     1522.500000       0.844931
     1522.600000       0.846399
     1522.700000       0.847868
     1522.800000       0.847983
     1522.900000       0.849453
     1523.000000       0.850924
     1523.100000       0.851042
     1523.200000       0.851161
     1523.300000       0.851280
     1523.400000       0.851399
     1523.500000       0.851518
     1523.600000       0.851637
     1523.700000       0.851756
     1523.800000       0.853232
     1523.900000       0.854708
     1524.000000       0.853471
     1524.100000       0.854845
     1524.200000       0.856220
     1524.300000       0.856237
     1524.400000       0.856254
     1524.500000       0.857629
     1524.600000       0.859003
     1524.700000       0.860377
     1524.800000       0.859036
     1524.900000       0.860408
     1525.000000       0.863137
     1525.100000       0.864509
     1525.200000       0.864524
     1525.300000       0.865895
     1525.400000       0.868623
     1525.500000       0.871350
     1525.600000       0.872719
     1525.700000       0.874088
     1525.800000       0.874098
     1525.900000       0.875466
     1526.000000       0.875476
     1526.100000       0.876936
     1526.200000       0.878396
     1526.300000       0.879856
     1526.400000       0.882672
     1526.500000       0.884131
     1526.600000       0.885589
     1526.700000       0.888404
     1526.800000       0.891219
     1526.900000       0.894032
     1527.000000       0.898205
     1527.100000       0.899654
     1527.200000       0.901104
     1527.300000       0.902553
     1527.400000       0.905359
     1527.500000       0.908165
     1527.600000       0.910968
     1527.700000       0.912412
     1527.800000       0.915214
     1527.900000       0.916654
     1528.000000       0.918095
     1528.100000       0.919637
     1528.200000       0.922540
     1528.300000       0.926803
     1528.400000       0.929704
     1528.500000       0.931244
     1528.600000       0.932780
     1528.700000       0.934316
     1528.800000       0.937212
     1528.900000       0.938744
     1529.000000       0.943002
     1529.100000       0.947255
     1529.200000       0.948782
     1529.300000       0.950307
     1529.400000       0.954556
     1529.500000       0.958806
     1529.600000       0.958959
     1529.700000       0.959112
     1529.800000       0.960626
     1529.900000       0.963502
     1530.000000       0.965014
     1530.100000       0.966568
     1530.200000       0.969488
     1530.300000       0.971040
     1530.400000       0.972590
     1530.500000       0.975506
     1530.600000       0.977051
     1530.700000       0.979962
     1530.800000       0.981505
     1530.900000       0.983046
     1531.000000       0.984586
     1531.100000       0.984756
     1531.200000       0.986294
     1531.300000       0.986461
     1531.400000       0.986625
     1531.500000       0.986789
     1531.600000       0.986950
     1531.700000       0.987110
     1531.800000       0.988638
     1531.900000       0.988793
     1532.000000       0.988949
     1532.100000       0.990745
     1532.200000       0.991171
     1532.300000       0.991595
     1532.400000       0.990646
     1532.500000       0.991067
     1532.600000       0.991486
     1532.700000       0.991904
     1532.800000       0.992320
     1532.900000       0.992736
     1533.000000       0.993152
     1533.100000       0.993564
     1533.200000       0.995352
     1533.300000       0.995763
     1533.400000       0.997551
     1533.500000       0.996584
     1533.600000       0.996992
     1533.700000       0.997400
     1533.800000       0.999187
     1533.900000       0.999594
     1534.000000       1.000000
     1534.100000       0.999982
     1534.200000       0.999963
     1534.300000       0.999945
     1534.400000       0.999926
     1534.500000       0.999908
     1534.600000       0.998508
     1534.700000       0.998489
     1534.800000       0.997089
     1534.900000       0.997071
     1535.000000       0.997052
     1535.100000       0.995652
     1535.200000       0.994252
     1535.300000       0.992853
     1535.400000       0.990073
     1535.500000       0.988674
     1535.600000       0.985897
     1535.700000       0.983118
     1535.800000       0.977579
     1535.900000       0.973421
     1536.000000       0.969264
     1536.100000       0.966788
     1536.200000       0.961547
     1536.300000       0.957686
     1536.400000       0.955205
     1536.500000       0.951340
     1536.600000       0.946091
     1536.700000       0.942222
     1536.800000       0.939736
     1536.900000       0.938634
     1537.000000       0.934761
     1537.100000       0.932276
     1537.200000       0.929788
     1537.300000       0.928687
     1537.400000       0.924813
     1537.500000       0.920936
     1537.600000       0.919836
     1537.700000       0.918734
     1537.800000       0.917634
     1537.900000       0.915145
     1538.000000       0.914044
     1538.100000       0.912832
     1538.200000       0.911620
     1538.300000       0.910410
     1538.400000       0.906420
     1538.500000       0.905209
     1538.600000       0.904002
     1538.700000       0.901403
     1538.800000       0.900195
     1538.900000       0.897596
     1539.000000       0.896388
     1539.100000       0.895179
     1539.200000       0.892577
     1539.300000       0.891368
     1539.400000       0.890160
     1539.500000       0.887558
     1539.600000       0.886351
     1539.700000       0.886537
     1539.800000       0.881147
     1539.900000       0.867389
     1540.000000       0.857809
     1540.100000       0.858028
     1540.200000       0.859642
     1540.300000       0.859862
     1540.400000       0.857290
     1540.500000       0.857510
     1540.600000       0.856336
     1540.700000       0.856557
     1540.800000       0.853984
     1540.900000       0.852808
     1541.000000       0.851630
     1541.100000       0.853249
     1541.200000       0.852069
     1541.300000       0.849490
     1541.400000       0.849709
     1541.500000       0.849928
     1541.600000       0.848747
     1541.700000       0.847565
     1541.800000       0.846384
     1541.900000       0.845201
     1542.000000       0.844017
     1542.100000       0.844226
     1542.200000       0.844433
     1542.300000       0.844641
     1542.400000       0.843445
     1542.500000       0.842249
     1542.600000       0.841051
     1542.700000       0.841257
     1542.800000       0.841463
     1542.900000       0.841669
     1543.000000       0.841874
     1543.100000       0.842079
     1543.200000       0.842284
     1543.300000       0.842488
     1543.400000       0.842691
     1543.500000       0.842894
     1543.600000       0.843096
     1543.700000       0.843298
     1543.800000       0.846316
     1543.900000       0.847926
     1544.000000       0.848127
     1544.100000       0.846774
     1544.200000       0.846828
     1544.300000       0.848291
     1544.400000       0.851162
     1544.500000       0.852624
     1544.600000       0.851266
     1544.700000       0.851316
     1544.800000       0.851366
     1544.900000       0.852824
     1545.000000       0.855692
     1545.100000       0.855738
     1545.200000       0.855783
     1545.300000       0.855826
     1545.400000       0.857279
     1545.500000       0.858730
     1545.600000       0.860180
     1545.700000       0.860219
     1545.800000       0.860257
     1545.900000       0.858883
     1546.000000       0.860329
     1546.100000       0.860270
     1546.200000       0.861619
     1546.300000       0.861556
     1546.400000       0.861492
     1546.500000       0.862836
     1546.600000       0.862768
     1546.700000       0.862699
     1546.800000       0.862629
     1546.900000       0.862556
     1547.000000       0.862483
     1547.100000       0.863814
     1547.200000       0.865145
     1547.300000       0.865064
     1547.400000       0.863573
     1547.500000       0.862082
     1547.600000       0.861997
     1547.700000       0.861911
     1547.800000       0.861824
     1547.900000       0.861736
     1548.000000       0.861646
     1548.100000       0.861530
     1548.200000       0.861412
     1548.300000       0.859886
     1548.400000       0.859767
     1548.500000       0.861054
     1548.600000       0.860931
     1548.700000       0.859400
     1548.800000       0.859276
     1548.900000       0.859150
     1549.000000       0.857618
     1549.100000       0.857487
     1549.200000       0.857356
     1549.300000       0.857223
     1549.400000       0.854280
     1549.500000       0.852741
     1549.600000       0.852606
     1549.700000       0.852470
     1549.800000       0.849526
     1549.900000       0.847986
     1550.000000       0.847849
     1550.100000       0.847569
     1550.200000       0.845886
     1550.300000       0.842801
     1550.400000       0.842521
     1550.500000       0.840839
     1550.600000       0.839156
     1550.700000       0.837475
     1550.800000       0.835793
     1550.900000       0.834113
     1551.000000       0.831033
     1551.100000       0.829345
     1551.200000       0.827657
     1551.300000       0.824572
     1551.400000       0.821489
     1551.500000       0.817011
     1551.600000       0.813931
     1551.700000       0.812249
     1551.800000       0.810567
     1551.900000       0.807491
     1552.000000       0.804416
     1552.100000       0.801428
     1552.200000       0.798440
     1552.300000       0.795454
     1552.400000       0.793861
     1552.500000       0.790876
     1552.600000       0.789284
     1552.700000       0.787692
     1552.800000       0.784709
     1552.900000       0.783119
     1553.000000       0.781530
     1553.100000       0.777158
     1553.200000       0.775568
     1553.300000       0.773979
     1553.400000       0.772390
     1553.500000       0.770802
     1553.600000       0.769215
     1553.700000       0.767629
     1553.800000       0.766043
     1553.900000       0.763071
     1554.000000       0.760098
     1554.100000       0.758450
     1554.200000       0.755416
     1554.300000       0.752385
     1554.400000       0.750740
     1554.500000       0.749097
     1554.600000       0.747456
     1554.700000       0.731977
     1554.800000       0.728959
     1554.900000       0.725942
     1555.000000       0.721546
     1555.100000       0.706101
     1555.200000       0.697573
     1555.300000       0.693194
     1555.400000       0.688818
     1555.500000       0.683064
     1555.600000       0.677315
     1555.700000       0.672948
     1555.800000       0.668584
     1555.900000       0.664224
     1556.000000       0.661244
     1556.100000       0.658163
     1556.200000       0.657838
     1556.300000       0.653386
     1556.400000       0.642065
     1556.500000       0.632127
     1556.600000       0.630441
     1556.700000       0.628755
     1556.800000       0.624327
     1556.900000       0.619903
     1557.000000       0.618223
     1557.100000       0.615179
     1557.200000       0.612136
     1557.300000       0.607728
     1557.400000       0.606060
     1557.500000       0.604394
     1557.600000       0.601362
     1557.700000       0.599698
     1557.800000       0.595305
     1557.900000       0.593645
     1558.000000       0.590623
     1558.100000       0.589021
     1558.200000       0.586058
     1558.300000       0.580372
     1558.400000       0.570605
     1558.500000       0.551317
     1558.600000       0.542929
     1558.700000       0.538630
     1558.800000       0.530254
     1558.900000       0.525962
     1559.000000       0.521673
     1559.100000       0.520101
     1559.200000       0.487309
     1559.300000       0.465399
     1559.400000       0.455713
     1559.500000       0.455525
     1559.600000       0.455337
     1559.700000       0.449731
     1559.800000       0.442775
     1559.900000       0.438532
     1560.000000       0.431586
     1560.100000       0.421870
     1560.200000       0.414868
     1560.300000       0.411926
     1560.400000       0.410336
     1560.500000       0.407399
     1560.600000       0.405813
     1560.700000       0.402882
     1560.800000       0.399954
     1560.900000       0.395683
     1561.000000       0.394107
     1561.100000       0.391186
     1561.200000       0.389611
     1561.300000       0.388039
     1561.400000       0.385126
     1561.500000       0.383557
     1561.600000       0.381990
     1561.700000       0.379084
     1561.800000       0.376182
     1561.900000       0.373283
     1562.000000       0.370388
     1562.100000       0.367513
     1562.200000       0.364641
     1562.300000       0.360437
     1562.400000       0.354904
     1562.500000       0.349376
     1562.600000       0.342521
     1562.700000       0.338338
     1562.800000       0.334159
     1562.900000       0.329984
     1563.000000       0.325814
     1563.100000       0.320321
     1563.200000       0.317490
     1563.300000       0.313334
     1563.400000       0.306529
     1563.500000       0.302383
     1563.600000       0.298242
     1563.700000       0.291456
     1563.800000       0.280704
     1563.900000       0.267317
     1564.000000       0.253945
     1564.100000       0.253836
     1564.200000       0.248442
     1564.300000       0.240409
     1564.400000       0.229743
     1564.500000       0.209847
     1564.600000       0.203161
     1564.700000       0.200436
     1564.800000       0.197714
     1564.900000       0.193676
     1565.000000       0.161986
     1565.100000       0.151384
     1565.200000       0.150001
     1565.300000       0.149935
     1565.400000       0.148555
     1565.500000       0.148490
     1565.600000       0.145798
     1565.700000       0.140482
     1565.800000       0.136484
     1565.900000       0.131177
     1566.000000       0.127186
     1566.100000       0.121872
     1566.200000       0.116565
     1566.300000       0.111263
     1566.400000       0.107276
     1566.500000       0.100678
     1566.600000       0.094088
     1566.700000       0.088810
     1566.800000       0.083539
     1566.900000       0.078274
     1567.000000       0.073014
     1567.100000       0.069062
     1567.200000       0.066417
     1567.300000       0.062474
     1567.400000       0.058535
     1567.500000       0.054600
     1567.600000       0.053269
     1567.700000       0.053237
     1567.800000       0.053206
     1567.900000       0.050581
     1568.000000       0.049255
     1568.100000       0.047938
     1568.200000       0.047918
     1568.300000       0.046603
     1568.400000       0.045290
     1568.500000       0.042684
     1568.600000       0.042666
     1568.700000       0.042648
     1568.800000       0.041338
     1568.900000       0.040029
     1569.000000       0.038722
     1569.100000       0.037414
     1569.200000       0.036108
     1569.300000       0.034803
     1569.400000       0.033500
     1569.500000       0.032197
     1569.600000       0.032183
     1569.700000       0.030882
     1569.800000       0.029582
     1569.900000       0.028283
     1570.000000       0.028271
     1570.100000       0.026969
     1570.200000       0.025669
     1570.300000       0.025653
     1570.400000       0.024355
     1570.500000       0.023059
     1570.600000       0.023045
     1570.700000       0.021751
     1570.800000       0.020459
     1570.900000       0.020446
     1571.000000       0.019156
     1571.100000       0.019144
     1571.200000       0.019132
     1571.300000       0.019120
     1571.400000       0.019108
     1571.500000       0.017823
     1571.600000       0.017812
     1571.700000       0.016529
     1571.800000       0.015248
     1571.900000       0.015239
     1572.000000       0.015229
     1572.100000       0.015222
     1572.200000       0.015215
     1572.300000       0.015207
     1572.400000       0.013934
     1572.500000       0.012661
     1572.600000       0.011389
     1572.700000       0.011384
     1572.800000       0.011378
     1572.900000       0.011373
     1573.000000       0.010104
     1573.100000       0.010100
     1573.200000       0.010095
     1573.300000       0.010090
     1573.400000       0.010085
     1573.500000       0.010080
     1573.600000       0.010076
     1573.700000       0.008812
     1573.800000       0.008808
     1573.900000       0.010061
     1574.000000       0.010056
     1574.100000       0.008795
     1574.200000       0.007536
     1574.300000       0.008788
     1574.400000       0.008784
     1574.500000       0.008781
     1574.600000       0.008777
     1574.700000       0.008773
     1574.800000       0.008769
     1574.900000       0.008766
     1575.000000       0.008762
     1575.100000       0.008758
     1575.200000       0.008754
     1575.300000       0.008750
     1575.400000       0.008746
     1575.500000       0.008742
     1575.600000       0.008738
     1575.700000       0.008734
     1575.800000       0.008730
     1575.900000       0.008727
     1576.000000       0.008723
     1576.100000       0.008716
     1576.200000       0.008710
     1576.300000       0.008704
     1576.400000       0.008698
     1576.500000       0.008692
     1576.600000       0.008685
     1576.700000       0.008679
     1576.800000       0.008673
     1576.900000       0.008667
     1577.000000       0.008661
     1577.100000       0.008655
     1577.200000       0.008648
     1577.300000       0.008642
     1577.400000       0.008636
     1577.500000       0.008630
     1577.600000       0.008623
     1577.700000       0.008617
     1577.800000       0.008611
     1577.900000       0.008605
     1578.000000       0.008598
     1578.100000       0.008594
     1578.200000       0.008589
     1578.300000       0.008584
     1578.400000       0.008579
     1578.500000       0.008575
     1578.600000       0.008570
     1578.700000       0.008565
     1578.800000       0.008560
     1578.900000       0.008556
     1579.000000       0.008551
     1579.100000       0.008546
     1579.200000       0.008541
     1579.300000       0.008537
     1579.400000       0.008532
     1579.500000       0.008528
     1579.600000       0.008523
     1579.700000       0.008518
     1579.800000       0.008513
     1579.900000       0.008509
     1580.000000       0.008504
     1580.100000       0.008501
     1580.200000       0.008497
     1580.300000       0.008494
     1580.400000       0.008491
     1580.500000       0.008487
     1580.600000       0.008484
     1580.700000       0.008480
     1580.800000       0.008477
     1580.900000       0.008474
     1581.000000       0.008470
     1581.100000       0.008467
     1581.200000       0.008463
     1581.300000       0.008460
     1581.400000       0.008456
     1581.500000       0.008453
     1581.600000       0.008449
     1581.700000       0.008446
     1581.800000       0.008442
     1581.900000       0.008439
     1582.000000       0.008435
     1582.100000       0.008429
     1582.200000       0.008424
     1582.300000       0.008418
     1582.400000       0.007211
     1582.500000       0.006005
     1582.600000       0.006001
     1582.700000       0.004797
     1582.800000       0.004794
     1582.900000       0.004791
     1583.000000       0.004788
     1583.100000       0.004784
     1583.200000       0.004781
     1583.300000       0.004778
     1583.400000       0.004774
     1583.500000       0.004771
     1583.600000       0.004767
     1583.700000       0.004764
     1583.800000       0.004761
     1583.900000       0.004757
     1584.000000       0.003566
     1584.100000       0.003563
     1584.200000       0.003561
     1584.300000       0.003559
     1584.400000       0.003556
     1584.500000       0.003554
     1584.600000       0.004735
     1584.700000       0.004732
     1584.800000       0.004729
     1584.900000       0.004726
     1585.000000       0.004723
     1585.100000       0.005900
     1585.200000       0.007075
     1585.300000       0.008248
     1585.400000       0.008243
     1585.500000       0.008237
     1585.600000       0.008231
     1585.700000       0.008226
     1585.800000       0.008220
     1585.900000       0.008214
     1586.000000       0.008209
     1586.100000       0.008203
     1586.200000       0.008198
     1586.300000       0.008193
     1586.400000       0.008187
     1586.500000       0.008182
     1586.600000       0.008176
     1586.700000       0.008171
     1586.800000       0.008165
     1586.900000       0.008160
     1587.000000       0.008155
     1587.100000       0.008149
     1587.200000       0.008144
     1587.300000       0.008138
     1587.400000       0.008133
     1587.500000       0.008127
     1587.600000       0.008122
     1587.700000       0.008116
     1587.800000       0.006952
     1587.900000       0.006947
     1588.000000       0.005786
     1588.100000       0.005781
     1588.200000       0.005776
     1588.300000       0.005772
     1588.400000       0.005767
     1588.500000       0.005763
     1588.600000       0.005758
     1588.700000       0.005753
     1588.800000       0.005749
     1588.900000       0.005744
     1589.000000       0.005739
     1589.100000       0.004588
     1589.200000       0.004584
     1589.300000       0.004580
     1589.400000       0.005721
     1589.500000       0.005716
     1589.600000       0.005711
     1589.700000       0.004565
     1589.800000       0.005702
     1589.900000       0.005697
     1590.000000       0.005693
     1590.100000       0.004550
     1590.200000       0.004545
     1590.300000       0.004540
     1590.400000       0.005669
     1590.500000       0.005664
     1590.600000       0.005658
     1590.700000       0.005652
     1590.800000       0.005646
     1590.900000       0.005640
     1591.000000       0.005634
     1591.100000       0.006754
     1591.200000       0.007872
     1591.300000       0.006740
     1591.400000       0.005611
     1591.500000       0.006726
     1591.600000       0.007839
     1591.700000       0.006712
     1591.800000       0.005587
     1591.900000       0.006698
     1592.000000       0.006691
     1592.100000       0.007798
     1592.200000       0.007790
     1592.300000       0.007782
     1592.400000       0.007775
     1592.500000       0.007767
     1592.600000       0.007759
     1592.700000       0.007751
     1592.800000       0.007743
     1592.900000       0.007736
     1593.000000       0.007728
     1593.100000       0.007720
     1593.200000       0.007712
     1593.300000       0.007704
     1593.400000       0.007696
     1593.500000       0.007689
     1593.600000       0.007681
     1593.700000       0.006577
     1593.800000       0.005475
     1593.900000       0.006563
     1594.000000       0.007649
     1594.100000       0.006549
     1594.200000       0.005451
     1594.300000       0.005444
     1594.400000       0.005438
     1594.500000       0.005431
     1594.600000       0.006510
     1594.700000       0.006502
     1594.800000       0.007576
     1594.900000       0.007567
     1595.000000       0.006478
     1595.100000       0.006471
     1595.200000       0.005386
     1595.300000       0.004303
     1595.400000       0.004298
     1595.500000       0.004293
     1595.600000       0.004288
     1595.700000       0.004283
     1595.800000       0.003208
     1595.900000       0.003204
     1596.000000       0.003200
     1596.100000       0.003196
     1596.200000       0.003191
     1596.300000       0.003187
     1596.400000       0.003182
     1596.500000       0.003177
     1596.600000       0.003173
     1596.700000       0.003168
     1596.800000       0.003164
     1596.900000       0.003159
     1597.000000       0.003154
     1597.100000       0.003150
     1597.200000       0.003145
     1597.300000       0.003141
     1597.400000       0.003136
     1597.500000       0.003132
     1597.600000       0.003127
     1597.700000       0.003122
     1597.800000       0.003118
     1597.900000       0.003113
     1598.000000       0.003109
     1598.100000       0.003104
     1598.200000       0.003100
     1598.300000       0.003095
     1598.400000       0.003091
     1598.500000       0.003086
     1598.600000       0.003082
     1598.700000       0.003077
     1598.800000       0.003073
     1598.900000       0.003068
     1599.000000       0.003064
     1599.100000       0.003059
     1599.200000       0.003055
     1599.300000       0.003050
     1599.400000       0.003046
     1599.500000       0.003041
     1599.600000       0.003037
     1599.700000       0.003032
     1599.800000       0.003028
     1599.900000       0.003023
     1600.000000       0.003019
     1600.100000       0.003014
     1600.200000       0.003009
     1600.300000       0.003004
     1600.400000       0.002999
     1600.500000       0.002994
     1600.600000       0.002989
     1600.700000       0.002983
     1600.800000       0.002978
     1600.900000       0.002973
     1601.000000       0.002968
     1601.100000       0.002963
     1601.200000       0.002958
     1601.300000       0.002953
     1601.400000       0.002948
     1601.500000       0.002943
     1601.600000       0.002938
     1601.700000       0.002933
     1601.800000       0.002928
     1601.900000       0.002923
     1602.000000       0.002918
     1602.100000       0.002913
     1602.200000       0.002909
     1602.300000       0.002904
     1602.400000       0.002899
     1602.500000       0.002895
     1602.600000       0.002890
     1602.700000       0.002885
     1602.800000       0.002881
     1602.900000       0.002876
     1603.000000       0.002872
     1603.100000       0.002867
     1603.200000       0.002862
     1603.300000       0.002858
     1603.400000       0.002853
     1603.500000       0.002848
     1603.600000       0.002844
     1603.700000       0.002839
     1603.800000       0.002834
     1603.900000       0.002830
     1604.000000       0.002825
     1604.100000       0.002820
     1604.200000       0.002815
     1604.300000       0.002810
     1604.400000       0.002805
     1604.500000       0.002800
     1604.600000       0.002795
     1604.700000       0.002791
     1604.800000       0.002786
     1604.900000       0.002781
     1605.000000       0.002776
     1605.100000       0.002771
     1605.200000       0.002766
     1605.300000       0.002761
     1605.400000       0.002756
     1605.500000       0.002751
     1605.600000       0.002746
     1605.700000       0.002742
     1605.800000       0.003649
     1605.900000       0.003642
     1606.000000       0.003636
     1606.100000       0.003630
     1606.200000       0.003623
     1606.300000       0.004521
     1606.400000       0.004513
     1606.500000       0.005406
     1606.600000       0.006296
     1606.700000       0.006285
     1606.800000       0.006274
     1606.900000       0.006262
     1607.000000       0.006251
     1607.100000       0.006240
     1607.200000       0.006229
     1607.300000       0.006218
     1607.400000       0.006207
     1607.500000       0.006196
     1607.600000       0.006185
     1607.700000       0.006174
     1607.800000       0.006163
     1607.900000       0.006152
     1608.000000       0.006141
     1608.100000       0.006129
     1608.200000       0.006118
     1608.300000       0.006106
     1608.400000       0.005224
     1608.500000       0.003476
     1608.600000       0.003469
     1608.700000       0.003462
     1608.800000       0.003456
     1608.900000       0.003449
     1609.000000       0.002582
     1609.100000       0.002577
     1609.200000       0.001715
     1609.300000       0.002567
     1609.400000       0.002562
     1609.500000       0.003409
     1609.600000       0.003403
     1609.700000       0.003396
     1609.800000       0.004237
     1609.900000       0.004229
     1610.000000       0.005065
     1610.100000       0.005898
     1610.200000       0.005888
     1610.300000       0.005878
     1610.400000       0.005868
     1610.500000       0.005858
     1610.600000       0.005847
     1610.700000       0.005837
     1610.800000       0.005827
     1610.900000       0.005817
     1611.000000       0.005807
     1611.100000       0.005797
     1611.200000       0.005786
     1611.300000       0.005776
     1611.400000       0.005766
     1611.500000       0.005756
     1611.600000       0.005746
     1611.700000       0.004916
     1611.800000       0.004090
     1611.900000       0.004899
     1612.000000       0.005705
     1612.100000       0.004882
     1612.200000       0.003249
     1612.300000       0.003244
     1612.400000       0.004048
     1612.500000       0.004041
     1612.600000       0.003227
     1612.700000       0.003221
     1612.800000       0.003216
     1612.900000       0.003210
     1613.000000       0.003205
     1613.100000       0.003199
     1613.200000       0.003194
     1613.300000       0.003188
     1613.400000       0.003183
     1613.500000       0.003177
     1613.600000       0.003172
     1613.700000       0.003958
     1613.800000       0.003951
     1613.900000       0.003944
     1614.000000       0.003938
     1614.100000       0.003930
     1614.200000       0.003923
     1614.300000       0.003916
     1614.400000       0.004691
     1614.500000       0.004682
     1614.600000       0.005452
     1614.700000       0.005442
     1614.800000       0.005432
     1614.900000       0.005422
     1615.000000       0.005412
     1615.100000       0.005402
     1615.200000       0.005392
     1615.300000       0.005382
     1615.400000       0.005372
     1615.500000       0.005362
     1615.600000       0.005352
     1615.700000       0.005343
     1615.800000       0.005333
     1615.900000       0.005323
     1616.000000       0.005313
     1616.100000       0.005304
     1616.200000       0.005296
     1616.300000       0.005287
     1616.400000       0.005278
     1616.500000       0.005270
     1616.600000       0.005261
     1616.700000       0.006003
     1616.800000       0.005994
     1616.900000       0.005984
     1617.000000       0.005974
     1617.100000       0.005964
     1617.200000       0.005955
     1617.300000       0.005945
     1617.400000       0.005935
     1617.500000       0.005925
     1617.600000       0.005176
     1617.700000       0.005168
     1617.800000       0.005159
     1617.900000       0.005151
     1618.000000       0.005142
     1618.100000       0.005134
     1618.200000       0.005126
     1618.300000       0.005117
     1618.400000       0.005109
     1618.500000       0.005101
     1618.600000       0.005092
     1618.700000       0.004358
     1618.800000       0.003626
     1618.900000       0.004344
     1619.000000       0.005059
     1619.100000       0.004330
     1619.200000       0.004323
     1619.300000       0.002877
     1619.400000       0.002872
     1619.500000       0.003585
     1619.600000       0.003579
     1619.700000       0.003573
     1619.800000       0.002854
     1619.900000       0.002849
     1620.000000       0.002844
     1620.100000       0.002841
     1620.200000       0.002838
     1620.300000       0.002835
     1620.400000       0.002832
     1620.500000       0.002828
     1620.600000       0.002825
     1620.700000       0.002822
     1620.800000       0.002819
     1620.900000       0.002815
     1621.000000       0.002812
     1621.100000       0.002809
     1621.200000       0.002806
     1621.300000       0.002803
     1621.400000       0.002800
     1621.500000       0.002796
     1621.600000       0.002793
     1621.700000       0.002790
     1621.800000       0.002787
     1621.900000       0.002784
     1622.000000       0.002781
     1622.100000       0.002777
     1622.200000       0.002774
     1622.300000       0.002771
     1622.400000       0.002767
     1622.500000       0.002764
     1622.600000       0.002761
     1622.700000       0.002757
     1622.800000       0.003442
     1622.900000       0.004814
     1623.000000       0.004808
     1623.100000       0.004802
     1623.200000       0.004796
     1623.300000       0.004790
     1623.400000       0.004785
     1623.500000       0.004779
     1623.600000       0.004773
     1623.700000       0.004768
     1623.800000       0.004762
     1623.900000       0.004756
     1624.000000       0.004072
     1624.100000       0.003389
     1624.200000       0.002708
     1624.300000       0.002705
     1624.400000       0.002702
     1624.500000       0.002699
     1624.600000       0.002696
     1624.700000       0.002693
     1624.800000       0.002018
     1624.900000       0.001344
     1625.000000       0.001342
     1625.100000       0.000670
     1625.200000       0.000670
     1625.300000       0.000669
     1625.400000       0.000668
     1625.500000       0.000667
     1625.600000       0.000667
     1625.700000       0.000666
     1625.800000       0.000000
