          20  , Jan 12th 2012 http://fy3.satellite.cma.gov.cn/ArssEn/Download/FY3A_calibration_info_params.rar
Number of data points:
260
Wavenumber (cm-1)   Filter response
     2466.700000       0.008272
     2467.917000       0.002072
     2469.136000       0.004401
     2470.356000       0.006874
     2471.577000       0.003590
     2472.799000       0.001689
     2474.023000       0.003447
     2475.248000       0.003218
     2476.473000       0.004140
     2477.701000       0.001802
     2478.929000       0.005390
     2480.159000       0.005025
     2481.389000       0.007358
     2482.622000       0.005845
     2483.855000       0.004596
     2485.089000       0.005341
     2486.325000       0.009019
     2487.562000       0.008128
     2488.800000       0.005761
     2490.040000       0.004820
     2491.281000       0.003736
     2492.522000       0.007036
     2493.765000       0.006917
     2495.010000       0.006098
     2496.256000       0.002633
     2497.502000       0.006890
     2498.751000       0.006795
     2500.000000       0.006522
     2501.251000       0.014762
     2502.502000       0.013525
     2503.756000       0.006158
     2505.010000       0.004549
     2506.266000       0.012484
     2507.523000       0.012454
     2508.781000       0.006299
     2510.040000       0.007947
     2511.301000       0.006532
     2512.563000       0.008658
     2513.826000       0.007764
     2515.091000       0.010810
     2516.356000       0.006664
     2517.624000       0.007499
     2518.892000       0.010743
     2520.161000       0.008942
     2521.432000       0.009063
     2522.704000       0.011854
     2523.978000       0.009013
     2525.252000       0.009767
     2526.529000       0.013600
     2527.806000       0.009794
     2529.084000       0.011020
     2530.365000       0.013141
     2531.646000       0.012773
     2532.928000       0.015430
     2534.212000       0.012106
     2535.497000       0.012840
     2536.783000       0.014742
     2538.071000       0.010129
     2539.360000       0.018492
     2540.650000       0.018854
     2541.942000       0.016446
     2543.235000       0.015804
     2544.529000       0.016811
     2545.825000       0.022830
     2547.122000       0.023673
     2548.420000       0.019034
     2549.719000       0.026079
     2551.020000       0.022006
     2552.323000       0.023506
     2553.626000       0.023815
     2554.931000       0.027940
     2556.237000       0.027638
     2557.545000       0.024951
     2558.854000       0.027761
     2560.164000       0.029066
     2561.475000       0.033389
     2562.788000       0.034969
     2564.103000       0.032027
     2565.418000       0.033430
     2566.735000       0.038457
     2568.053000       0.038342
     2569.373000       0.041914
     2570.694000       0.040992
     2572.016000       0.045336
     2573.340000       0.050553
     2574.665000       0.053968
     2575.992000       0.051382
     2577.320000       0.057373
     2578.649000       0.059764
     2579.979000       0.058464
     2581.311000       0.069561
     2582.645000       0.075289
     2583.979000       0.083649
     2585.315000       0.085210
     2586.653000       0.090421
     2587.992000       0.098648
     2589.332000       0.108186
     2590.674000       0.116799
     2592.017000       0.116250
     2593.361000       0.128523
     2594.707000       0.131292
     2596.054000       0.146438
     2597.403000       0.158973
     2598.753000       0.174238
     2600.104000       0.188784
     2601.457000       0.201696
     2602.811000       0.217822
     2604.167000       0.239241
     2605.524000       0.250491
     2606.882000       0.267425
     2608.242000       0.297797
     2609.603000       0.320857
     2610.966000       0.345867
     2612.330000       0.376997
     2613.696000       0.403791
     2615.063000       0.438418
     2616.431000       0.477329
     2617.801000       0.512785
     2619.172000       0.528418
     2620.545000       0.570183
     2621.919000       0.604711
     2623.295000       0.646694
     2624.672000       0.689586
     2626.050000       0.733001
     2627.430000       0.770851
     2628.812000       0.811573
     2630.195000       0.845032
     2631.579000       0.871848
     2632.965000       0.970550
     2634.352000       0.979849
     2635.741000       0.990852
     2637.131000       0.999501
     2638.522000       1.000000
     2639.916000       0.996174
     2641.310000       0.988666
     2642.706000       0.978876
     2644.104000       0.963466
     2645.503000       0.951256
     2646.903000       0.935647
     2648.305000       0.936120
     2649.708000       0.926087
     2651.114000       0.921176
     2652.520000       0.912163
     2653.928000       0.905012
     2655.337000       0.897310
     2656.748000       0.893995
     2658.160000       0.891259
     2659.574000       0.885397
     2660.990000       0.876339
     2662.407000       0.872895
     2663.825000       0.869618
     2665.245000       0.870270
     2666.667000       0.867036
     2668.090000       0.866613
     2669.514000       0.868246
     2670.940000       0.871264
     2672.368000       0.871800
     2673.797000       0.879027
     2675.228000       0.872927
     2676.659000       0.873069
     2678.093000       0.878485
     2679.528000       0.868324
     2680.965000       0.865770
     2682.404000       0.866300
     2683.843000       0.861101
     2685.285000       0.844288
     2686.728000       0.836621
     2688.172000       0.822657
     2689.618000       0.796974
     2691.066000       0.775268
     2692.515000       0.757204
     2693.966000       0.729523
     2695.418000       0.696309
     2696.872000       0.663299
     2698.327000       0.630983
     2699.784000       0.599902
     2701.243000       0.566755
     2702.703000       0.526867
     2704.165000       0.489465
     2705.628000       0.456190
     2707.093000       0.417998
     2708.559000       0.389803
     2710.027000       0.358457
     2711.497000       0.329566
     2712.968000       0.308128
     2714.441000       0.274843
     2715.915000       0.254515
     2717.391000       0.233223
     2718.869000       0.216452
     2720.348000       0.198121
     2721.829000       0.179730
     2723.312000       0.166595
     2724.796000       0.155857
     2726.281000       0.142063
     2727.769000       0.129221
     2729.258000       0.116031
     2730.748000       0.109258
     2732.240000       0.101620
     2733.734000       0.094794
     2735.230000       0.085735
     2736.727000       0.078501
     2738.226000       0.072306
     2739.726000       0.067666
     2741.228000       0.061784
     2742.732000       0.059543
     2744.237000       0.054950
     2745.744000       0.053487
     2747.253000       0.047857
     2748.763000       0.042981
     2750.275000       0.038808
     2751.789000       0.038842
     2753.304000       0.035597
     2754.821000       0.032698
     2756.340000       0.034569
     2757.860000       0.033785
     2759.382000       0.030018
     2760.906000       0.027087
     2762.431000       0.023837
     2763.958000       0.022637
     2765.487000       0.022215
     2767.017000       0.022490
     2768.549000       0.022617
     2770.083000       0.019754
     2771.619000       0.019689
     2773.156000       0.019567
     2774.695000       0.015132
     2776.235000       0.015439
     2777.778000       0.014824
     2779.322000       0.016985
     2780.868000       0.013088
     2782.415000       0.012986
     2783.964000       0.011722
     2785.515000       0.011011
     2787.068000       0.008875
     2788.623000       0.010978
     2790.178000       0.012325
     2791.736000       0.009632
     2793.296000       0.010328
     2794.857000       0.007342
     2796.421000       0.009525
     2797.986000       0.007407
     2799.552000       0.009737
     2801.121000       0.010809
     2802.690000       0.006770
     2804.262000       0.009327
     2805.836000       0.004116
     2807.412000       0.004682
     2808.989000       0.004555
     2810.568000       0.003956
     2812.148000       0.008019
     2813.731000       0.008671
     2815.315000       0.008449
     2816.901000       0.004967
     2818.489000       0.004851
     2820.079000       0.006964
     2821.670000       0.004734
     2823.264000       0.003755
     2824.859000       0.003321
     2826.456000       0.002619
     2828.054000       0.008533
