   5  ,noaa_19_hirs_05.flt
Number of data points:
404
Wavenumber (cm-1)   Filter response
      695.800000       0.000000
      695.900000       0.000072
      696.000000       0.000196
      696.100000       0.000342
      696.200000       0.000504
      696.300000       0.000679
      696.400000       0.000864
      696.500000       0.001052
      696.600000       0.001249
      696.700000       0.001452
      696.800000       0.001678
      696.900000       0.001910
      697.000000       0.002187
      697.100000       0.002466
      697.200000       0.002753
      697.300000       0.003048
      697.400000       0.003344
      697.500000       0.003643
      697.600000       0.003943
      697.700000       0.004255
      697.800000       0.004576
      697.900000       0.004899
      698.000000       0.005223
      698.100000       0.005554
      698.200000       0.005885
      698.300000       0.006224
      698.400000       0.006564
      698.500000       0.006905
      698.600000       0.007247
      698.700000       0.007594
      698.800000       0.007947
      698.900000       0.008302
      699.000000       0.008662
      699.100000       0.009038
      699.200000       0.009432
      699.300000       0.009847
      699.400000       0.010309
      699.500000       0.010776
      699.600000       0.011261
      699.700000       0.011764
      699.800000       0.012284
      699.900000       0.012815
      700.000000       0.013350
      700.100000       0.013602
      700.200000       0.013905
      700.300000       0.014405
      700.400000       0.015040
      700.500000       0.015759
      700.600000       0.016544
      700.700000       0.017429
      700.800000       0.018369
      700.900000       0.019277
      701.000000       0.020190
      701.100000       0.021127
      701.200000       0.022071
      701.300000       0.022992
      701.400000       0.023937
      701.500000       0.025025
      701.600000       0.026226
      701.700000       0.027483
      701.800000       0.028745
      701.900000       0.029961
      702.000000       0.031160
      702.100000       0.032390
      702.200000       0.033629
      702.300000       0.034788
      702.400000       0.035916
      702.500000       0.037118
      702.600000       0.038443
      702.700000       0.039912
      702.800000       0.041531
      702.900000       0.043328
      703.000000       0.045266
      703.100000       0.047309
      703.200000       0.049465
      703.300000       0.051712
      703.400000       0.054059
      703.500000       0.056511
      703.600000       0.059090
      703.700000       0.061760
      703.800000       0.064538
      703.900000       0.067470
      704.000000       0.070619
      704.100000       0.074017
      704.200000       0.077610
      704.300000       0.081344
      704.400000       0.085217
      704.500000       0.089214
      704.600000       0.093302
      704.700000       0.097484
      704.800000       0.101821
      704.900000       0.106465
      705.000000       0.111350
      705.100000       0.116503
      705.200000       0.121900
      705.300000       0.127552
      705.400000       0.133437
      705.500000       0.139567
      705.600000       0.145874
      705.700000       0.152375
      705.800000       0.159130
      705.900000       0.166289
      706.000000       0.173765
      706.100000       0.181513
      706.200000       0.189502
      706.300000       0.197775
      706.400000       0.206339
      706.500000       0.215282
      706.600000       0.224587
      706.700000       0.234286
      706.800000       0.244346
      706.900000       0.254743
      707.000000       0.265441
      707.100000       0.276443
      707.200000       0.287802
      707.300000       0.299608
      707.400000       0.311816
      707.500000       0.324396
      707.600000       0.337317
      707.700000       0.350592
      707.800000       0.364189
      707.900000       0.378080
      708.000000       0.392172
      708.100000       0.406458
      708.200000       0.420890
      708.300000       0.435524
      708.400000       0.450301
      708.500000       0.465228
      708.600000       0.480223
      708.700000       0.495292
      708.800000       0.510370
      708.900000       0.525461
      709.000000       0.540556
      709.100000       0.555717
      709.200000       0.570924
      709.300000       0.586262
      709.400000       0.601599
      709.500000       0.616806
      709.600000       0.631833
      709.700000       0.646749
      709.800000       0.661534
      709.900000       0.676180
      710.000000       0.690606
      710.100000       0.704780
      710.200000       0.718619
      710.300000       0.732107
      710.400000       0.745261
      710.500000       0.758187
      710.600000       0.770853
      710.700000       0.783250
      710.800000       0.795281
      710.900000       0.806867
      711.000000       0.817988
      711.100000       0.828694
      711.200000       0.838972
      711.300000       0.848801
      711.400000       0.858179
      711.500000       0.867101
      711.600000       0.875613
      711.700000       0.883814
      711.800000       0.891709
      711.900000       0.899288
      712.000000       0.906562
      712.100000       0.913534
      712.200000       0.920182
      712.300000       0.926577
      712.400000       0.932708
      712.500000       0.938519
      712.600000       0.943983
      712.700000       0.949041
      712.800000       0.953673
      712.900000       0.957862
      713.000000       0.961728
      713.100000       0.965421
      713.200000       0.968942
      713.300000       0.972206
      713.400000       0.975212
      713.500000       0.977987
      713.600000       0.980568
      713.700000       0.982961
      713.800000       0.985207
      713.900000       0.987359
      714.000000       0.989392
      714.100000       0.991223
      714.200000       0.992845
      714.300000       0.994331
      714.400000       0.995730
      714.500000       0.997055
      714.600000       0.998226
      714.700000       0.999136
      714.800000       0.999743
      714.900000       1.000000
      715.000000       0.999946
      715.100000       0.999582
      715.200000       0.998946
      715.300000       0.998100
      715.400000       0.997101
      715.500000       0.996003
      715.600000       0.994892
      715.700000       0.993849
      715.800000       0.992817
      715.900000       0.991726
      716.000000       0.990532
      716.100000       0.989244
      716.200000       0.987850
      716.300000       0.986278
      716.400000       0.984517
      716.500000       0.982533
      716.600000       0.980288
      716.700000       0.977782
      716.800000       0.975100
      716.900000       0.972337
      717.000000       0.969484
      717.100000       0.966505
      717.200000       0.963388
      717.300000       0.960164
      717.400000       0.956790
      717.500000       0.953266
      717.600000       0.949658
      717.700000       0.945997
      717.800000       0.942213
      717.900000       0.938339
      718.000000       0.934342
      718.100000       0.930241
      718.200000       0.925985
      718.300000       0.921510
      718.400000       0.916803
      718.500000       0.911775
      718.600000       0.906491
      718.700000       0.900974
      718.800000       0.895258
      718.900000       0.889360
      719.000000       0.883292
      719.100000       0.877005
      719.200000       0.870517
      719.300000       0.863782
      719.400000       0.856870
      719.500000       0.849840
      719.600000       0.842721
      719.700000       0.835370
      719.800000       0.827790
      719.900000       0.819946
      720.000000       0.811869
      720.100000       0.803458
      720.200000       0.794717
      720.300000       0.785662
      720.400000       0.776332
      720.500000       0.766735
      720.600000       0.756959
      720.700000       0.747082
      720.800000       0.737127
      720.900000       0.727064
      721.000000       0.716818
      721.100000       0.706309
      721.200000       0.695561
      721.300000       0.684543
      721.400000       0.673262
      721.500000       0.661782
      721.600000       0.650082
      721.700000       0.638159
      721.800000       0.626049
      721.900000       0.613670
      722.000000       0.601077
      722.100000       0.588279
      722.200000       0.575356
      722.300000       0.562324
      722.400000       0.549241
      722.500000       0.536074
      722.600000       0.522872
      722.700000       0.509584
      722.800000       0.496291
      722.900000       0.483070
      723.000000       0.470008
      723.100000       0.457086
      723.200000       0.444360
      723.300000       0.431770
      723.400000       0.419304
      723.500000       0.406922
      723.600000       0.394698
      723.700000       0.382636
      723.800000       0.370778
      723.900000       0.359116
      724.000000       0.347691
      724.100000       0.336519
      724.200000       0.325591
      724.300000       0.314843
      724.400000       0.304295
      724.500000       0.293904
      724.600000       0.283659
      724.700000       0.273537
      724.800000       0.263594
      724.900000       0.253829
      725.000000       0.244300
      725.100000       0.235042
      725.200000       0.226057
      725.300000       0.217283
      725.400000       0.208741
      725.500000       0.200461
      725.600000       0.192462
      725.700000       0.184710
      725.800000       0.177197
      725.900000       0.169898
      726.000000       0.162820
      726.100000       0.155958
      726.200000       0.149364
      726.300000       0.143132
      726.400000       0.137243
      726.500000       0.131559
      726.600000       0.126042
      726.700000       0.120738
      726.800000       0.115723
      726.900000       0.111024
      727.000000       0.106621
      727.100000       0.102549
      727.200000       0.098782
      727.300000       0.095224
      727.400000       0.091827
      727.500000       0.088559
      727.600000       0.085399
      727.700000       0.082322
      727.800000       0.079313
      727.900000       0.076408
      728.000000       0.073625
      728.100000       0.071000
      728.200000       0.068486
      728.300000       0.065998
      728.400000       0.063505
      728.500000       0.061001
      728.600000       0.058477
      728.700000       0.055963
      728.800000       0.053500
      728.900000       0.051138
      729.000000       0.048871
      729.100000       0.046671
      729.200000       0.044540
      729.300000       0.042493
      729.400000       0.040544
      729.500000       0.038728
      729.600000       0.037064
      729.700000       0.035594
      729.800000       0.034258
      729.900000       0.032979
      730.000000       0.031780
      730.100000       0.030672
      730.200000       0.029567
      730.300000       0.028463
      730.400000       0.027391
      730.500000       0.026325
      730.600000       0.025283
      730.700000       0.024243
      730.800000       0.023206
      730.900000       0.022206
      731.000000       0.021213
      731.100000       0.020237
      731.200000       0.019279
      731.300000       0.018402
      731.400000       0.017711
      731.500000       0.017123
      731.600000       0.016541
      731.700000       0.015979
      731.800000       0.015416
      731.900000       0.014853
      732.000000       0.014291
      732.100000       0.013733
      732.200000       0.013202
      732.300000       0.012689
      732.400000       0.012184
      732.500000       0.011697
      732.600000       0.011222
      732.700000       0.010798
      732.800000       0.010379
      732.900000       0.009962
      733.000000       0.009549
      733.100000       0.009142
      733.200000       0.008752
      733.300000       0.008365
      733.400000       0.007985
      733.500000       0.007610
      733.600000       0.007234
      733.700000       0.006859
      733.800000       0.006485
      733.900000       0.006112
      734.000000       0.005751
      734.100000       0.005390
      734.200000       0.005032
      734.300000       0.004696
      734.400000       0.004369
      734.500000       0.004049
      734.600000       0.003733
      734.700000       0.003417
      734.800000       0.003101
      734.900000       0.002790
      735.000000       0.002488
      735.100000       0.002189
      735.200000       0.001896
      735.300000       0.001606
      735.400000       0.001331
      735.500000       0.001092
      735.600000       0.000856
      735.700000       0.000635
      735.800000       0.000414
      735.900000       0.000221
      736.000000       0.000062
      736.100000       0.000000
