   4  ,noaa_19_hirs_04.flt
Number of data points:
395
Wavenumber (cm-1)   Filter response
      684.300000       0.000000
      684.400000       0.000018
      684.500000       0.000262
      684.600000       0.000507
      684.700000       0.000759
      684.800000       0.001017
      684.900000       0.001277
      685.000000       0.001544
      685.100000       0.001812
      685.200000       0.002087
      685.300000       0.002372
      685.400000       0.002659
      685.500000       0.002948
      685.600000       0.003239
      685.700000       0.003538
      685.800000       0.003843
      685.900000       0.004156
      686.000000       0.004471
      686.100000       0.004789
      686.200000       0.005111
      686.300000       0.005448
      686.400000       0.005794
      686.500000       0.006142
      686.600000       0.006502
      686.700000       0.006864
      686.800000       0.007231
      686.900000       0.007599
      687.000000       0.007976
      687.100000       0.008384
      687.200000       0.008795
      687.300000       0.009211
      687.400000       0.009638
      687.500000       0.010075
      687.600000       0.010514
      687.700000       0.010957
      687.800000       0.011424
      687.900000       0.011894
      688.000000       0.012369
      688.100000       0.012850
      688.200000       0.013376
      688.300000       0.014002
      688.400000       0.014752
      688.500000       0.015576
      688.600000       0.016434
      688.700000       0.017324
      688.800000       0.018216
      688.900000       0.019193
      689.000000       0.020350
      689.100000       0.021656
      689.200000       0.022985
      689.300000       0.024341
      689.400000       0.025713
      689.500000       0.027116
      689.600000       0.028545
      689.700000       0.030009
      689.800000       0.031479
      689.900000       0.032990
      690.000000       0.034602
      690.100000       0.036338
      690.200000       0.038172
      690.300000       0.040097
      690.400000       0.042130
      690.500000       0.044283
      690.600000       0.046574
      690.700000       0.048954
      690.800000       0.051455
      690.900000       0.054084
      691.000000       0.056911
      691.100000       0.059931
      691.200000       0.063218
      691.300000       0.066714
      691.400000       0.070440
      691.500000       0.074347
      691.600000       0.078416
      691.700000       0.082682
      691.800000       0.087295
      691.900000       0.092237
      692.000000       0.097561
      692.100000       0.103202
      692.200000       0.109220
      692.300000       0.115586
      692.400000       0.122358
      692.500000       0.129487
      692.600000       0.137013
      692.700000       0.144911
      692.800000       0.153195
      692.900000       0.161910
      693.000000       0.171208
      693.100000       0.181044
      693.200000       0.191492
      693.300000       0.202516
      693.400000       0.214104
      693.500000       0.226253
      693.600000       0.238972
      693.700000       0.252262
      693.800000       0.266150
      693.900000       0.280694
      694.000000       0.295936
      694.100000       0.311802
      694.200000       0.328316
      694.300000       0.345463
      694.400000       0.363211
      694.500000       0.381466
      694.600000       0.400192
      694.700000       0.419345
      694.800000       0.438899
      694.900000       0.458791
      695.000000       0.478984
      695.100000       0.499386
      695.200000       0.519958
      695.300000       0.540571
      695.400000       0.561141
      695.500000       0.581556
      695.600000       0.601754
      695.700000       0.621715
      695.800000       0.641413
      695.900000       0.660744
      696.000000       0.679721
      696.100000       0.698131
      696.200000       0.716109
      696.300000       0.733558
      696.400000       0.750505
      696.500000       0.766818
      696.600000       0.782400
      696.700000       0.797148
      696.800000       0.811040
      696.900000       0.824100
      697.000000       0.836374
      697.100000       0.847830
      697.200000       0.858575
      697.300000       0.868539
      697.400000       0.877725
      697.500000       0.886111
      697.600000       0.893718
      697.700000       0.900569
      697.800000       0.906683
      697.900000       0.912095
      698.000000       0.916858
      698.100000       0.920995
      698.200000       0.924681
      698.300000       0.927959
      698.400000       0.930877
      698.500000       0.933481
      698.600000       0.935783
      698.700000       0.937837
      698.800000       0.939681
      698.900000       0.941373
      699.000000       0.942965
      699.100000       0.944490
      699.200000       0.945958
      699.300000       0.947376
      699.400000       0.948721
      699.500000       0.950017
      699.600000       0.951238
      699.700000       0.952406
      699.800000       0.953491
      699.900000       0.954593
      700.000000       0.955750
      700.100000       0.956959
      700.200000       0.958326
      700.300000       0.959866
      700.400000       0.961537
      700.500000       0.963249
      700.600000       0.964894
      700.700000       0.966498
      700.800000       0.968014
      700.900000       0.969477
      701.000000       0.970889
      701.100000       0.972327
      701.200000       0.973899
      701.300000       0.975593
      701.400000       0.977429
      701.500000       0.979365
      701.600000       0.981311
      701.700000       0.983224
      701.800000       0.985065
      701.900000       0.986844
      702.000000       0.988559
      702.100000       0.990191
      702.200000       0.991723
      702.300000       0.993137
      702.400000       0.994430
      702.500000       0.995583
      702.600000       0.996582
      702.700000       0.997445
      702.800000       0.998235
      702.900000       0.998934
      703.000000       0.999496
      703.100000       0.999861
      703.200000       1.000000
      703.300000       0.999886
      703.400000       0.999549
      703.500000       0.998951
      703.600000       0.998042
      703.700000       0.996803
      703.800000       0.995210
      703.900000       0.993283
      704.000000       0.991047
      704.100000       0.988543
      704.200000       0.985844
      704.300000       0.982955
      704.400000       0.979843
      704.500000       0.976519
      704.600000       0.972926
      704.700000       0.969085
      704.800000       0.964962
      704.900000       0.960604
      705.000000       0.955987
      705.100000       0.951161
      705.200000       0.946185
      705.300000       0.941081
      705.400000       0.935787
      705.500000       0.930293
      705.600000       0.924578
      705.700000       0.918703
      705.800000       0.912645
      705.900000       0.906424
      706.000000       0.900009
      706.100000       0.893412
      706.200000       0.886546
      706.300000       0.879458
      706.400000       0.872155
      706.500000       0.864665
      706.600000       0.856986
      706.700000       0.849132
      706.800000       0.841057
      706.900000       0.832713
      707.000000       0.824052
      707.100000       0.815120
      707.200000       0.805933
      707.300000       0.796564
      707.400000       0.787039
      707.500000       0.777347
      707.600000       0.767499
      707.700000       0.757502
      707.800000       0.747357
      707.900000       0.737063
      708.000000       0.726572
      708.100000       0.715897
      708.200000       0.705003
      708.300000       0.693915
      708.400000       0.682616
      708.500000       0.671140
      708.600000       0.659495
      708.700000       0.647717
      708.800000       0.635779
      708.900000       0.623698
      709.000000       0.611440
      709.100000       0.599035
      709.200000       0.586423
      709.300000       0.573630
      709.400000       0.560667
      709.500000       0.547638
      709.600000       0.534590
      709.700000       0.521547
      709.800000       0.508520
      709.900000       0.495526
      710.000000       0.482488
      710.100000       0.469452
      710.200000       0.456424
      710.300000       0.443470
      710.400000       0.430606
      710.500000       0.417862
      710.600000       0.405262
      710.700000       0.392795
      710.800000       0.380420
      710.900000       0.368169
      711.000000       0.356025
      711.100000       0.344002
      711.200000       0.332072
      711.300000       0.320270
      711.400000       0.308640
      711.500000       0.297258
      711.600000       0.286167
      711.700000       0.275394
      711.800000       0.264959
      711.900000       0.254838
      712.000000       0.244947
      712.100000       0.235299
      712.200000       0.225924
      712.300000       0.216863
      712.400000       0.208110
      712.500000       0.199686
      712.600000       0.191626
      712.700000       0.183911
      712.800000       0.176503
      712.900000       0.169370
      713.000000       0.162470
      713.100000       0.155753
      713.200000       0.149153
      713.300000       0.142713
      713.400000       0.136479
      713.500000       0.130463
      713.600000       0.124703
      713.700000       0.119206
      713.800000       0.113990
      713.900000       0.108991
      714.000000       0.104166
      714.100000       0.099518
      714.200000       0.095045
      714.300000       0.090726
      714.400000       0.086551
      714.500000       0.082525
      714.600000       0.078682
      714.700000       0.075005
      714.800000       0.071481
      714.900000       0.068083
      715.000000       0.064782
      715.100000       0.061574
      715.200000       0.058482
      715.300000       0.055554
      715.400000       0.052834
      715.500000       0.050316
      715.600000       0.048054
      715.700000       0.046027
      715.800000       0.044247
      715.900000       0.042636
      716.000000       0.041066
      716.100000       0.039536
      716.200000       0.038045
      716.300000       0.036568
      716.400000       0.035112
      716.500000       0.033706
      716.600000       0.032419
      716.700000       0.031234
      716.800000       0.030128
      716.900000       0.029027
      717.000000       0.027936
      717.100000       0.026849
      717.200000       0.025774
      717.300000       0.024715
      717.400000       0.023656
      717.500000       0.022625
      717.600000       0.021621
      717.700000       0.020618
      717.800000       0.019630
      717.900000       0.018649
      718.000000       0.017672
      718.100000       0.016723
      718.200000       0.015831
      718.300000       0.014994
      718.400000       0.014213
      718.500000       0.013488
      718.600000       0.012828
      718.700000       0.012173
      718.800000       0.011518
      718.900000       0.010897
      719.000000       0.010282
      719.100000       0.009672
      719.200000       0.009064
      719.300000       0.008510
      719.400000       0.008035
      719.500000       0.007650
      719.600000       0.007275
      719.700000       0.006904
      719.800000       0.006543
      719.900000       0.006190
      720.000000       0.005861
      720.100000       0.005536
      720.200000       0.005229
      720.300000       0.004928
      720.400000       0.004663
      720.500000       0.004416
      720.600000       0.004171
      720.700000       0.003933
      720.800000       0.003713
      720.900000       0.003516
      721.000000       0.003328
      721.100000       0.003157
      721.200000       0.002986
      721.300000       0.002816
      721.400000       0.002654
      721.500000       0.002493
      721.600000       0.002338
      721.700000       0.002185
      721.800000       0.002035
      721.900000       0.001892
      722.000000       0.001758
      722.100000       0.001627
      722.200000       0.001497
      722.300000       0.001369
      722.400000       0.001241
      722.500000       0.001121
      722.600000       0.001003
      722.700000       0.000887
      722.800000       0.000778
      722.900000       0.000671
      723.000000       0.000567
      723.100000       0.000470
      723.200000       0.000376
      723.300000       0.000292
      723.400000       0.000210
      723.500000       0.000128
      723.600000       0.000047
      723.700000       0.000000
