03  , Filter noaa_05_avhrr_03.flt
Number of data points:
60
Wavenumber (cm-1)   Filter response
     2496.136000       0.000000
     2502.501400       0.229534
     2508.866800       0.470763
     2515.232200       0.691895
     2521.597600       0.858751
     2527.963000       0.957675
     2534.328400       1.000000
     2540.693800       0.998642
     2547.059200       0.966466
     2553.424600       0.916337
     2559.790000       0.861097
     2566.155400       0.813587
     2572.520800       0.805882
     2578.886200       0.762668
     2585.251600       0.756075
     2591.617000       0.759408
     2597.982400       0.770718
     2604.347800       0.788028
     2610.713200       0.809339
     2617.078600       0.832675
     2623.444000       0.856085
     2629.809400       0.877593
     2636.174800       0.895323
     2642.540200       0.908855
     2648.905600       0.918436
     2655.271000       0.924388
     2661.636400       0.926980
     2668.001800       0.926511
     2674.367200       0.923276
     2680.732600       0.917572
     2687.098000       0.909670
     2693.463400       0.899891
     2699.828800       0.888532
     2706.194200       0.875840
     2712.559600       0.861492
     2718.925000       0.844750
     2725.290400       0.824748
     2731.655800       0.801536
     2738.021200       0.777682
     2744.386600       0.756272
     2750.752000       0.740419
     2757.117400       0.733085
     2763.482800       0.730838
     2769.848200       0.721059
     2776.213600       0.690389
     2782.579000       0.627420
     2788.944400       0.537831
     2795.309800       0.435944
     2801.675200       0.336083
     2808.040600       0.249481
     2814.406000       0.177408
     2820.771400       0.119264
     2827.136800       0.074447
     2833.502200       0.042357
     2839.867600       0.021865
     2846.233000       0.010280
     2852.598400       0.004623
     2858.963800       0.001921
     2865.329200       0.000000
     2871.694600       0.000000
