9,   channel 9 SRF from file WV069.txt received February 2021 from Eunha Sohn (KMA)
Number of data points:
1997
Wavenumber (cm-1)   Filter response
     1345.900000       0.000924
     1346.000000       0.000931
     1346.100000       0.000934
     1346.200000       0.000934
     1346.300000       0.000934
     1346.400000       0.000930
     1346.500000       0.000925
     1346.600000       0.000920
     1346.700000       0.000916
     1346.800000       0.000913
     1346.900000       0.000913
     1347.000000       0.000914
     1347.100000       0.000918
     1347.200000       0.000924
     1347.300000       0.000931
     1347.400000       0.000940
     1347.500000       0.000950
     1347.600000       0.000960
     1347.700000       0.000970
     1347.800000       0.000978
     1347.900000       0.000985
     1348.000000       0.000991
     1348.100000       0.000994
     1348.200000       0.000995
     1348.300000       0.000995
     1348.400000       0.000993
     1348.500000       0.000991
     1348.600000       0.000989
     1348.700000       0.000988
     1348.800000       0.000988
     1348.900000       0.000991
     1349.000000       0.000996
     1349.100000       0.001001
     1349.200000       0.001036
     1349.300000       0.001180
     1349.400000       0.001245
     1349.500000       0.001263
     1349.600000       0.001282
     1349.700000       0.001302
     1349.800000       0.001320
     1349.900000       0.001337
     1350.000000       0.001351
     1350.100000       0.001361
     1350.200000       0.001368
     1350.300000       0.001370
     1350.400000       0.001369
     1350.500000       0.001365
     1350.600000       0.001357
     1350.700000       0.001347
     1350.800000       0.001336
     1350.900000       0.001324
     1351.000000       0.001313
     1351.100000       0.001304
     1351.200000       0.001298
     1351.300000       0.001295
     1351.400000       0.001295
     1351.500000       0.001300
     1351.600000       0.001307
     1351.700000       0.001319
     1351.800000       0.001332
     1351.900000       0.001347
     1352.000000       0.001363
     1352.100000       0.001379
     1352.200000       0.001395
     1352.300000       0.001408
     1352.400000       0.001419
     1352.500000       0.001426
     1352.600000       0.001430
     1352.700000       0.001430
     1352.800000       0.001430
     1352.900000       0.001427
     1353.000000       0.001422
     1353.100000       0.001417
     1353.200000       0.001414
     1353.300000       0.001413
     1353.400000       0.001413
     1353.500000       0.001417
     1353.600000       0.001425
     1353.700000       0.001438
     1353.800000       0.001455
     1353.900000       0.001475
     1354.000000       0.001498
     1354.100000       0.001523
     1354.200000       0.001549
     1354.300000       0.001574
     1354.400000       0.001597
     1354.500000       0.001618
     1354.600000       0.001635
     1354.700000       0.001647
     1354.800000       0.001656
     1354.900000       0.001656
     1355.000000       0.001654
     1355.100000       0.001648
     1355.200000       0.001637
     1355.300000       0.001625
     1355.400000       0.001613
     1355.500000       0.001602
     1355.600000       0.001594
     1355.700000       0.001589
     1355.800000       0.001589
     1355.900000       0.001594
     1356.000000       0.001603
     1356.100000       0.001618
     1356.200000       0.001639
     1356.300000       0.001665
     1356.400000       0.001695
     1356.500000       0.001726
     1356.600000       0.001759
     1356.700000       0.001791
     1356.800000       0.001821
     1356.900000       0.001847
     1357.000000       0.001870
     1357.100000       0.001887
     1357.200000       0.001901
     1357.300000       0.001911
     1357.400000       0.001916
     1357.500000       0.001917
     1357.600000       0.001917
     1357.700000       0.001915
     1357.800000       0.001914
     1357.900000       0.001915
     1358.000000       0.001917
     1358.100000       0.001925
     1358.200000       0.001938
     1358.300000       0.001955
     1358.400000       0.001977
     1358.500000       0.002003
     1358.600000       0.002033
     1358.700000       0.002066
     1358.800000       0.002100
     1358.900000       0.002135
     1359.000000       0.002168
     1359.100000       0.002198
     1359.200000       0.002226
     1359.300000       0.002247
     1359.400000       0.002263
     1359.500000       0.002274
     1359.600000       0.002279
     1359.700000       0.002279
     1359.800000       0.002277
     1359.900000       0.002273
     1360.000000       0.002267
     1360.100000       0.002262
     1360.200000       0.002260
     1360.300000       0.002262
     1360.400000       0.002266
     1360.500000       0.002277
     1360.600000       0.002293
     1360.700000       0.002317
     1360.800000       0.002347
     1360.900000       0.002381
     1361.000000       0.002418
     1361.100000       0.002458
     1361.200000       0.002499
     1361.300000       0.002539
     1361.400000       0.002576
     1361.500000       0.002610
     1361.600000       0.002641
     1361.700000       0.002667
     1361.800000       0.002687
     1361.900000       0.002702
     1362.000000       0.002712
     1362.100000       0.002717
     1362.200000       0.002721
     1362.300000       0.002723
     1362.400000       0.002726
     1362.500000       0.002730
     1362.600000       0.002737
     1362.700000       0.002749
     1362.800000       0.002765
     1362.900000       0.002787
     1363.000000       0.002814
     1363.100000       0.002846
     1363.200000       0.002883
     1363.300000       0.002925
     1363.400000       0.002968
     1363.500000       0.003013
     1363.600000       0.003058
     1363.700000       0.003101
     1363.800000       0.003142
     1363.900000       0.003178
     1364.000000       0.003210
     1364.100000       0.003238
     1364.200000       0.003260
     1364.300000       0.003279
     1364.400000       0.003294
     1364.500000       0.003307
     1364.600000       0.003318
     1364.700000       0.003330
     1364.800000       0.003342
     1364.900000       0.003357
     1365.000000       0.003375
     1365.100000       0.003398
     1365.200000       0.003425
     1365.300000       0.003458
     1365.400000       0.003495
     1365.500000       0.003536
     1365.600000       0.003578
     1365.700000       0.003623
     1365.800000       0.003669
     1365.900000       0.003714
     1366.000000       0.003758
     1366.100000       0.003799
     1366.200000       0.003837
     1366.300000       0.003873
     1366.400000       0.003904
     1366.500000       0.003932
     1366.600000       0.003957
     1366.700000       0.003982
     1366.800000       0.004005
     1366.900000       0.004030
     1367.000000       0.004056
     1367.100000       0.004087
     1367.200000       0.004121
     1367.300000       0.004160
     1367.400000       0.004205
     1367.500000       0.004255
     1367.600000       0.004310
     1367.700000       0.004370
     1367.800000       0.004432
     1367.900000       0.004498
     1368.000000       0.004564
     1368.100000       0.004630
     1368.200000       0.004695
     1368.300000       0.004757
     1368.400000       0.004815
     1368.500000       0.004869
     1368.600000       0.004917
     1368.700000       0.004961
     1368.800000       0.005001
     1368.900000       0.005038
     1369.000000       0.005073
     1369.100000       0.005107
     1369.200000       0.005142
     1369.300000       0.005179
     1369.400000       0.005220
     1369.500000       0.005263
     1369.600000       0.005312
     1369.700000       0.005366
     1369.800000       0.005427
     1369.900000       0.005493
     1370.000000       0.005565
     1370.100000       0.005641
     1370.200000       0.005719
     1370.300000       0.005798
     1370.400000       0.005878
     1370.500000       0.005956
     1370.600000       0.006030
     1370.700000       0.006100
     1370.800000       0.006167
     1370.900000       0.006229
     1371.000000       0.006287
     1371.100000       0.006342
     1371.200000       0.006394
     1371.300000       0.006444
     1371.400000       0.006494
     1371.500000       0.006545
     1371.600000       0.006599
     1371.700000       0.006657
     1371.800000       0.006720
     1371.900000       0.006788
     1372.000000       0.006864
     1372.100000       0.006946
     1372.200000       0.007033
     1372.300000       0.007125
     1372.400000       0.007221
     1372.500000       0.007321
     1372.600000       0.007423
     1372.700000       0.007526
     1372.800000       0.007628
     1372.900000       0.007728
     1373.000000       0.007827
     1373.100000       0.007922
     1373.200000       0.008015
     1373.300000       0.008104
     1373.400000       0.008191
     1373.500000       0.008277
     1373.600000       0.008363
     1373.700000       0.008451
     1373.800000       0.008541
     1373.900000       0.008635
     1374.000000       0.008734
     1374.100000       0.008840
     1374.200000       0.008951
     1374.300000       0.009069
     1374.400000       0.009193
     1374.500000       0.009324
     1374.600000       0.009459
     1374.700000       0.009599
     1374.800000       0.009741
     1374.900000       0.009884
     1375.000000       0.010027
     1375.100000       0.010168
     1375.200000       0.010307
     1375.300000       0.010441
     1375.400000       0.010570
     1375.500000       0.010694
     1375.600000       0.010816
     1375.700000       0.010938
     1375.800000       0.011058
     1375.900000       0.011180
     1376.000000       0.011304
     1376.100000       0.011431
     1376.200000       0.011563
     1376.300000       0.011701
     1376.400000       0.011845
     1376.500000       0.011995
     1376.600000       0.012153
     1376.700000       0.012318
     1376.800000       0.012490
     1376.900000       0.012668
     1377.000000       0.012852
     1377.100000       0.013039
     1377.200000       0.013230
     1377.300000       0.013421
     1377.400000       0.013614
     1377.500000       0.013805
     1377.600000       0.013995
     1377.700000       0.014182
     1377.800000       0.014368
     1377.900000       0.014551
     1378.000000       0.014731
     1378.100000       0.014910
     1378.200000       0.015087
     1378.300000       0.015265
     1378.400000       0.015445
     1378.500000       0.015627
     1378.600000       0.015814
     1378.700000       0.016007
     1378.800000       0.016207
     1378.900000       0.016413
     1379.000000       0.016629
     1379.100000       0.016853
     1379.200000       0.017081
     1379.300000       0.017314
     1379.400000       0.017555
     1379.500000       0.017801
     1379.600000       0.018051
     1379.700000       0.018304
     1379.800000       0.018562
     1379.900000       0.018820
     1380.000000       0.019077
     1380.100000       0.019333
     1380.200000       0.019590
     1380.300000       0.019846
     1380.400000       0.020102
     1380.500000       0.020360
     1380.600000       0.020621
     1380.700000       0.020888
     1380.800000       0.021161
     1380.900000       0.021442
     1381.000000       0.021730
     1381.100000       0.022026
     1381.200000       0.022330
     1381.300000       0.022646
     1381.400000       0.022971
     1381.500000       0.023307
     1381.600000       0.023653
     1381.700000       0.024010
     1381.800000       0.024374
     1381.900000       0.024747
     1382.000000       0.025125
     1382.100000       0.025510
     1382.200000       0.025899
     1382.300000       0.026291
     1382.400000       0.026686
     1382.500000       0.027082
     1382.600000       0.027480
     1382.700000       0.027880
     1382.800000       0.028281
     1382.900000       0.028683
     1383.000000       0.029088
     1383.100000       0.029497
     1383.200000       0.029912
     1383.300000       0.030333
     1383.400000       0.030766
     1383.500000       0.031211
     1383.600000       0.031672
     1383.700000       0.032143
     1383.800000       0.032630
     1383.900000       0.033128
     1384.000000       0.033641
     1384.100000       0.034165
     1384.200000       0.034703
     1384.300000       0.035252
     1384.400000       0.035812
     1384.500000       0.036382
     1384.600000       0.036961
     1384.700000       0.037548
     1384.800000       0.038138
     1384.900000       0.038737
     1385.000000       0.039346
     1385.100000       0.039956
     1385.200000       0.040569
     1385.300000       0.041209
     1385.400000       0.041871
     1385.500000       0.042540
     1385.600000       0.043216
     1385.700000       0.043901
     1385.800000       0.044599
     1385.900000       0.045317
     1386.000000       0.046050
     1386.100000       0.046805
     1386.200000       0.047580
     1386.300000       0.048377
     1386.400000       0.049188
     1386.500000       0.050021
     1386.600000       0.050867
     1386.700000       0.051727
     1386.800000       0.052601
     1386.900000       0.053491
     1387.000000       0.054395
     1387.100000       0.055312
     1387.200000       0.056243
     1387.300000       0.057189
     1387.400000       0.058140
     1387.500000       0.059096
     1387.600000       0.060079
     1387.700000       0.061089
     1387.800000       0.062136
     1387.900000       0.063215
     1388.000000       0.064311
     1388.100000       0.065426
     1388.200000       0.066566
     1388.300000       0.067723
     1388.400000       0.068911
     1388.500000       0.070115
     1388.600000       0.071333
     1388.700000       0.072563
     1388.800000       0.073801
     1388.900000       0.075056
     1389.000000       0.076346
     1389.100000       0.077659
     1389.200000       0.078994
     1389.300000       0.080360
     1389.400000       0.081770
     1389.500000       0.083212
     1389.600000       0.084682
     1389.700000       0.086175
     1389.800000       0.087697
     1389.900000       0.089248
     1390.000000       0.090826
     1390.100000       0.092439
     1390.200000       0.094092
     1390.300000       0.095780
     1390.400000       0.097498
     1390.500000       0.099240
     1390.600000       0.101009
     1390.700000       0.102808
     1390.800000       0.104630
     1390.900000       0.106491
     1391.000000       0.108385
     1391.100000       0.110310
     1391.200000       0.112257
     1391.300000       0.114233
     1391.400000       0.116240
     1391.500000       0.118291
     1391.600000       0.120372
     1391.700000       0.122495
     1391.800000       0.124656
     1391.900000       0.126857
     1392.000000       0.129090
     1392.100000       0.131370
     1392.200000       0.133689
     1392.300000       0.136058
     1392.400000       0.138459
     1392.500000       0.140910
     1392.600000       0.143408
     1392.700000       0.145953
     1392.800000       0.148543
     1392.900000       0.151192
     1393.000000       0.153889
     1393.100000       0.156636
     1393.200000       0.159431
     1393.300000       0.162276
     1393.400000       0.165173
     1393.500000       0.168123
     1393.600000       0.171132
     1393.700000       0.174204
     1393.800000       0.177341
     1393.900000       0.180531
     1394.000000       0.183791
     1394.100000       0.187094
     1394.200000       0.190423
     1394.300000       0.193786
     1394.400000       0.197210
     1394.500000       0.200675
     1394.600000       0.204192
     1394.700000       0.207754
     1394.800000       0.211366
     1394.900000       0.215022
     1395.000000       0.218746
     1395.100000       0.222520
     1395.200000       0.226348
     1395.300000       0.230229
     1395.400000       0.234182
     1395.500000       0.238210
     1395.600000       0.242318
     1395.700000       0.246494
     1395.800000       0.250762
     1395.900000       0.255104
     1396.000000       0.259521
     1396.100000       0.264015
     1396.200000       0.268607
     1396.300000       0.273283
     1396.400000       0.278012
     1396.500000       0.282796
     1396.600000       0.287655
     1396.700000       0.292576
     1396.800000       0.297546
     1396.900000       0.302563
     1397.000000       0.307641
     1397.100000       0.312777
     1397.200000       0.317963
     1397.300000       0.323188
     1397.400000       0.328458
     1397.500000       0.333771
     1397.600000       0.339124
     1397.700000       0.344530
     1397.800000       0.349987
     1397.900000       0.355491
     1398.000000       0.361040
     1398.100000       0.366664
     1398.200000       0.372334
     1398.300000       0.378070
     1398.400000       0.383845
     1398.500000       0.389684
     1398.600000       0.395572
     1398.700000       0.401514
     1398.800000       0.407510
     1398.900000       0.413569
     1399.000000       0.419672
     1399.100000       0.425834
     1399.200000       0.432040
     1399.300000       0.438289
     1399.400000       0.444559
     1399.500000       0.450848
     1399.600000       0.457154
     1399.700000       0.463475
     1399.800000       0.469838
     1399.900000       0.476266
     1400.000000       0.482700
     1400.100000       0.489146
     1400.200000       0.495608
     1400.300000       0.502092
     1400.400000       0.508604
     1400.500000       0.515140
     1400.600000       0.521698
     1400.700000       0.528261
     1400.800000       0.534824
     1400.900000       0.541385
     1401.000000       0.547940
     1401.100000       0.554484
     1401.200000       0.561013
     1401.300000       0.567531
     1401.400000       0.574037
     1401.500000       0.580526
     1401.600000       0.587012
     1401.700000       0.593495
     1401.800000       0.599914
     1401.900000       0.606279
     1402.000000       0.612604
     1402.100000       0.618898
     1402.200000       0.625162
     1402.300000       0.631405
     1402.400000       0.637636
     1402.500000       0.643857
     1402.600000       0.650055
     1402.700000       0.656214
     1402.800000       0.662340
     1402.900000       0.668425
     1403.000000       0.674486
     1403.100000       0.680531
     1403.200000       0.686559
     1403.300000       0.692568
     1403.400000       0.698532
     1403.500000       0.704431
     1403.600000       0.710250
     1403.700000       0.716025
     1403.800000       0.721744
     1403.900000       0.727421
     1404.000000       0.733023
     1404.100000       0.738576
     1404.200000       0.744042
     1404.300000       0.749443
     1404.400000       0.754772
     1404.500000       0.760026
     1404.600000       0.765195
     1404.700000       0.770282
     1404.800000       0.775275
     1404.900000       0.780208
     1405.000000       0.785077
     1405.100000       0.789907
     1405.200000       0.794671
     1405.300000       0.799403
     1405.400000       0.804092
     1405.500000       0.808775
     1405.600000       0.813465
     1405.700000       0.818155
     1405.800000       0.822815
     1405.900000       0.827424
     1406.000000       0.831958
     1406.100000       0.836424
     1406.200000       0.840835
     1406.300000       0.845163
     1406.400000       0.849375
     1406.500000       0.853457
     1406.600000       0.857439
     1406.700000       0.861326
     1406.800000       0.865099
     1406.900000       0.868774
     1407.000000       0.872359
     1407.100000       0.875845
     1407.200000       0.879197
     1407.300000       0.882400
     1407.400000       0.885463
     1407.500000       0.888419
     1407.600000       0.891289
     1407.700000       0.894094
     1407.800000       0.896844
     1407.900000       0.899498
     1408.000000       0.902071
     1408.100000       0.904552
     1408.200000       0.906941
     1408.300000       0.909317
     1408.400000       0.911658
     1408.500000       0.913991
     1408.600000       0.916325
     1408.700000       0.918622
     1408.800000       0.920858
     1408.900000       0.923125
     1409.000000       0.925428
     1409.100000       0.927672
     1409.200000       0.929850
     1409.300000       0.931949
     1409.400000       0.933979
     1409.500000       0.935963
     1409.600000       0.937898
     1409.700000       0.939715
     1409.800000       0.941392
     1409.900000       0.943008
     1410.000000       0.944582
     1410.100000       0.946128
     1410.200000       0.947653
     1410.300000       0.949165
     1410.400000       0.950651
     1410.500000       0.952003
     1410.600000       0.953250
     1410.700000       0.954420
     1410.800000       0.955546
     1410.900000       0.956656
     1411.000000       0.957751
     1411.100000       0.958833
     1411.200000       0.959906
     1411.300000       0.960959
     1411.400000       0.961994
     1411.500000       0.963006
     1411.600000       0.964002
     1411.700000       0.964961
     1411.800000       0.965880
     1411.900000       0.966753
     1412.000000       0.967601
     1412.100000       0.968421
     1412.200000       0.969230
     1412.300000       0.970022
     1412.400000       0.970796
     1412.500000       0.971548
     1412.600000       0.972279
     1412.700000       0.972984
     1412.800000       0.973666
     1412.900000       0.974313
     1413.000000       0.974923
     1413.100000       0.975495
     1413.200000       0.976040
     1413.300000       0.976554
     1413.400000       0.977053
     1413.500000       0.977548
     1413.600000       0.978039
     1413.700000       0.978521
     1413.800000       0.979002
     1413.900000       0.979504
     1414.000000       0.980024
     1414.100000       0.980556
     1414.200000       0.981101
     1414.300000       0.981658
     1414.400000       0.982228
     1414.500000       0.982808
     1414.600000       0.983415
     1414.700000       0.983960
     1414.800000       0.984468
     1414.900000       0.984973
     1415.000000       0.985437
     1415.100000       0.985779
     1415.200000       0.986055
     1415.300000       0.986299
     1415.400000       0.986497
     1415.500000       0.986714
     1415.600000       0.986902
     1415.700000       0.986935
     1415.800000       0.986944
     1415.900000       0.986964
     1416.000000       0.986998
     1416.100000       0.987065
     1416.200000       0.987182
     1416.300000       0.987315
     1416.400000       0.987467
     1416.500000       0.987618
     1416.600000       0.987800
     1416.700000       0.988028
     1416.800000       0.988288
     1416.900000       0.988622
     1417.000000       0.988999
     1417.100000       0.989410
     1417.200000       0.989848
     1417.300000       0.990291
     1417.400000       0.990738
     1417.500000       0.991181
     1417.600000       0.991616
     1417.700000       0.992025
     1417.800000       0.992411
     1417.900000       0.992765
     1418.000000       0.993084
     1418.100000       0.993311
     1418.200000       0.993477
     1418.300000       0.993646
     1418.400000       0.993809
     1418.500000       0.993843
     1418.600000       0.993830
     1418.700000       0.993877
     1418.800000       0.993970
     1418.900000       0.994001
     1419.000000       0.994035
     1419.100000       0.994087
     1419.200000       0.994163
     1419.300000       0.994266
     1419.400000       0.994407
     1419.500000       0.994596
     1419.600000       0.994852
     1419.700000       0.995155
     1419.800000       0.995494
     1419.900000       0.995901
     1420.000000       0.996368
     1420.100000       0.996761
     1420.200000       0.997073
     1420.300000       0.997414
     1420.400000       0.997792
     1420.500000       0.998160
     1420.600000       0.998513
     1420.700000       0.998835
     1420.800000       0.999105
     1420.900000       0.999338
     1421.000000       0.999541
     1421.100000       0.999727
     1421.200000       0.999876
     1421.300000       0.999956
     1421.400000       0.999992
     1421.500000       0.999995
     1421.600000       0.999939
     1421.700000       0.999865
     1421.800000       0.999770
     1421.900000       0.999670
     1422.000000       0.999567
     1422.100000       0.999476
     1422.200000       0.999397
     1422.300000       0.999355
     1422.400000       0.999347
     1422.500000       0.999332
     1422.600000       0.999283
     1422.700000       0.999237
     1422.800000       0.999186
     1422.900000       0.999131
     1423.000000       0.999073
     1423.100000       0.999018
     1423.200000       0.998972
     1423.300000       0.998893
     1423.400000       0.998771
     1423.500000       0.998645
     1423.600000       0.998448
     1423.700000       0.998194
     1423.800000       0.997880
     1423.900000       0.997503
     1424.000000       0.997067
     1424.100000       0.996598
     1424.200000       0.996099
     1424.300000       0.995577
     1424.400000       0.995040
     1424.500000       0.994510
     1424.600000       0.994009
     1424.700000       0.993553
     1424.800000       0.993150
     1424.900000       0.992781
     1425.000000       0.992452
     1425.100000       0.992158
     1425.200000       0.991894
     1425.300000       0.991655
     1425.400000       0.991475
     1425.500000       0.991303
     1425.600000       0.991095
     1425.700000       0.990871
     1425.800000       0.990653
     1425.900000       0.990424
     1426.000000       0.990173
     1426.100000       0.989905
     1426.200000       0.989613
     1426.300000       0.989293
     1426.400000       0.988938
     1426.500000       0.988542
     1426.600000       0.988035
     1426.700000       0.987406
     1426.800000       0.986824
     1426.900000       0.986277
     1427.000000       0.985705
     1427.100000       0.985111
     1427.200000       0.984503
     1427.300000       0.983884
     1427.400000       0.983245
     1427.500000       0.982586
     1427.600000       0.981927
     1427.700000       0.981270
     1427.800000       0.980614
     1427.900000       0.979956
     1428.000000       0.979266
     1428.100000       0.978537
     1428.200000       0.977826
     1428.300000       0.977189
     1428.400000       0.976496
     1428.500000       0.975709
     1428.600000       0.974937
     1428.700000       0.974155
     1428.800000       0.973354
     1428.900000       0.972532
     1429.000000       0.971672
     1429.100000       0.970677
     1429.200000       0.969683
     1429.300000       0.968749
     1429.400000       0.967793
     1429.500000       0.966804
     1429.600000       0.965798
     1429.700000       0.964773
     1429.800000       0.963765
     1429.900000       0.962790
     1430.000000       0.961841
     1430.100000       0.960945
     1430.200000       0.960063
     1430.300000       0.959177
     1430.400000       0.958287
     1430.500000       0.957381
     1430.600000       0.956487
     1430.700000       0.955638
     1430.800000       0.954819
     1430.900000       0.954031
     1431.000000       0.953260
     1431.100000       0.952507
     1431.200000       0.951771
     1431.300000       0.951067
     1431.400000       0.950400
     1431.500000       0.949751
     1431.600000       0.949112
     1431.700000       0.948464
     1431.800000       0.947800
     1431.900000       0.947154
     1432.000000       0.946517
     1432.100000       0.945820
     1432.200000       0.945087
     1432.300000       0.944326
     1432.400000       0.943537
     1432.500000       0.942737
     1432.600000       0.941924
     1432.700000       0.941109
     1432.800000       0.940317
     1432.900000       0.939568
     1433.000000       0.938930
     1433.100000       0.938290
     1433.200000       0.937603
     1433.300000       0.936936
     1433.400000       0.936321
     1433.500000       0.935739
     1433.600000       0.935191
     1433.700000       0.934685
     1433.800000       0.934236
     1433.900000       0.933807
     1434.000000       0.933371
     1434.100000       0.932955
     1434.200000       0.932494
     1434.300000       0.932077
     1434.400000       0.931753
     1434.500000       0.931458
     1434.600000       0.931168
     1434.700000       0.930893
     1434.800000       0.930618
     1434.900000       0.930352
     1435.000000       0.930097
     1435.100000       0.929841
     1435.200000       0.929589
     1435.300000       0.929351
     1435.400000       0.929138
     1435.500000       0.928943
     1435.600000       0.928760
     1435.700000       0.928590
     1435.800000       0.928489
     1435.900000       0.928462
     1436.000000       0.928396
     1436.100000       0.928259
     1436.200000       0.928130
     1436.300000       0.928006
     1436.400000       0.927866
     1436.500000       0.927688
     1436.600000       0.927466
     1436.700000       0.927205
     1436.800000       0.926920
     1436.900000       0.926606
     1437.000000       0.926252
     1437.100000       0.925871
     1437.200000       0.925489
     1437.300000       0.925128
     1437.400000       0.924773
     1437.500000       0.924426
     1437.600000       0.924109
     1437.700000       0.923856
     1437.800000       0.923629
     1437.900000       0.923480
     1438.000000       0.923370
     1438.100000       0.923301
     1438.200000       0.923283
     1438.300000       0.923329
     1438.400000       0.923495
     1438.500000       0.923729
     1438.600000       0.924074
     1438.700000       0.924404
     1438.800000       0.924740
     1438.900000       0.925089
     1439.000000       0.925443
     1439.100000       0.925751
     1439.200000       0.926020
     1439.300000       0.926221
     1439.400000       0.926349
     1439.500000       0.926384
     1439.600000       0.926356
     1439.700000       0.926294
     1439.800000       0.926179
     1439.900000       0.926022
     1440.000000       0.925800
     1440.100000       0.925535
     1440.200000       0.925221
     1440.300000       0.924894
     1440.400000       0.924563
     1440.500000       0.924247
     1440.600000       0.924014
     1440.700000       0.923807
     1440.800000       0.923597
     1440.900000       0.923395
     1441.000000       0.923242
     1441.100000       0.923124
     1441.200000       0.923061
     1441.300000       0.923033
     1441.400000       0.923036
     1441.500000       0.923063
     1441.600000       0.923106
     1441.700000       0.923178
     1441.800000       0.923264
     1441.900000       0.923361
     1442.000000       0.923470
     1442.100000       0.923589
     1442.200000       0.923709
     1442.300000       0.923794
     1442.400000       0.923905
     1442.500000       0.924085
     1442.600000       0.924283
     1442.700000       0.924502
     1442.800000       0.924753
     1442.900000       0.925071
     1443.000000       0.925449
     1443.100000       0.925897
     1443.200000       0.926390
     1443.300000       0.926947
     1443.400000       0.927575
     1443.500000       0.928312
     1443.600000       0.929111
     1443.700000       0.929877
     1443.800000       0.930648
     1443.900000       0.931419
     1444.000000       0.932191
     1444.100000       0.932946
     1444.200000       0.933681
     1444.300000       0.934375
     1444.400000       0.935037
     1444.500000       0.935650
     1444.600000       0.936207
     1444.700000       0.936709
     1444.800000       0.937157
     1444.900000       0.937550
     1445.000000       0.937875
     1445.100000       0.938162
     1445.200000       0.938403
     1445.300000       0.938622
     1445.400000       0.938829
     1445.500000       0.939043
     1445.600000       0.939294
     1445.700000       0.939577
     1445.800000       0.939889
     1445.900000       0.940240
     1446.000000       0.940646
     1446.100000       0.941113
     1446.200000       0.941638
     1446.300000       0.942227
     1446.400000       0.942852
     1446.500000       0.943515
     1446.600000       0.944190
     1446.700000       0.944874
     1446.800000       0.945544
     1446.900000       0.946198
     1447.000000       0.946806
     1447.100000       0.947370
     1447.200000       0.947893
     1447.300000       0.948372
     1447.400000       0.948807
     1447.500000       0.949193
     1447.600000       0.949537
     1447.700000       0.949823
     1447.800000       0.950082
     1447.900000       0.950317
     1448.000000       0.950545
     1448.100000       0.950786
     1448.200000       0.951004
     1448.300000       0.951189
     1448.400000       0.951361
     1448.500000       0.951574
     1448.600000       0.951848
     1448.700000       0.952212
     1448.800000       0.952641
     1448.900000       0.953114
     1449.000000       0.953635
     1449.100000       0.954199
     1449.200000       0.954798
     1449.300000       0.955418
     1449.400000       0.956061
     1449.500000       0.956718
     1449.600000       0.957372
     1449.700000       0.958014
     1449.800000       0.958628
     1449.900000       0.959209
     1450.000000       0.959737
     1450.100000       0.960225
     1450.200000       0.960652
     1450.300000       0.961030
     1450.400000       0.961330
     1450.500000       0.961578
     1450.600000       0.961749
     1450.700000       0.961873
     1450.800000       0.961941
     1450.900000       0.961984
     1451.000000       0.961990
     1451.100000       0.961962
     1451.200000       0.961931
     1451.300000       0.961912
     1451.400000       0.961896
     1451.500000       0.961902
     1451.600000       0.961919
     1451.700000       0.962028
     1451.800000       0.962146
     1451.900000       0.962238
     1452.000000       0.962355
     1452.100000       0.962586
     1452.200000       0.962858
     1452.300000       0.963070
     1452.400000       0.963243
     1452.500000       0.963400
     1452.600000       0.963535
     1452.700000       0.963611
     1452.800000       0.963658
     1452.900000       0.963661
     1453.000000       0.963617
     1453.100000       0.963521
     1453.200000       0.963386
     1453.300000       0.963225
     1453.400000       0.963016
     1453.500000       0.962773
     1453.600000       0.962510
     1453.700000       0.962239
     1453.800000       0.961965
     1453.900000       0.961706
     1454.000000       0.961476
     1454.100000       0.961273
     1454.200000       0.961108
     1454.300000       0.960979
     1454.400000       0.960905
     1454.500000       0.960858
     1454.600000       0.960862
     1454.700000       0.960903
     1454.800000       0.960964
     1454.900000       0.961064
     1455.000000       0.961179
     1455.100000       0.961305
     1455.200000       0.961410
     1455.300000       0.961497
     1455.400000       0.961547
     1455.500000       0.961561
     1455.600000       0.961519
     1455.700000       0.961430
     1455.800000       0.961283
     1455.900000       0.961061
     1456.000000       0.960767
     1456.100000       0.960439
     1456.200000       0.960091
     1456.300000       0.959724
     1456.400000       0.959348
     1456.500000       0.958987
     1456.600000       0.958644
     1456.700000       0.958332
     1456.800000       0.958061
     1456.900000       0.957838
     1457.000000       0.957663
     1457.100000       0.957529
     1457.200000       0.957445
     1457.300000       0.957390
     1457.400000       0.957371
     1457.500000       0.957357
     1457.600000       0.957341
     1457.700000       0.957321
     1457.800000       0.957261
     1457.900000       0.957143
     1458.000000       0.956929
     1458.100000       0.956561
     1458.200000       0.956139
     1458.300000       0.955671
     1458.400000       0.955099
     1458.500000       0.954404
     1458.600000       0.953622
     1458.700000       0.952715
     1458.800000       0.951736
     1458.900000       0.950704
     1459.000000       0.949626
     1459.100000       0.948460
     1459.200000       0.947266
     1459.300000       0.946101
     1459.400000       0.944961
     1459.500000       0.943889
     1459.600000       0.942879
     1459.700000       0.941971
     1459.800000       0.941136
     1459.900000       0.940401
     1460.000000       0.939756
     1460.100000       0.939186
     1460.200000       0.938680
     1460.300000       0.938238
     1460.400000       0.937872
     1460.500000       0.937569
     1460.600000       0.937320
     1460.700000       0.937093
     1460.800000       0.936875
     1460.900000       0.936649
     1461.000000       0.936403
     1461.100000       0.936139
     1461.200000       0.935852
     1461.300000       0.935541
     1461.400000       0.935202
     1461.500000       0.934839
     1461.600000       0.934460
     1461.700000       0.934066
     1461.800000       0.933667
     1461.900000       0.933262
     1462.000000       0.932856
     1462.100000       0.932454
     1462.200000       0.932061
     1462.300000       0.931686
     1462.400000       0.931324
     1462.500000       0.930980
     1462.600000       0.930651
     1462.700000       0.930353
     1462.800000       0.930110
     1462.900000       0.929933
     1463.000000       0.929839
     1463.100000       0.929770
     1463.200000       0.929708
     1463.300000       0.929679
     1463.400000       0.929670
     1463.500000       0.929663
     1463.600000       0.929656
     1463.700000       0.929648
     1463.800000       0.929633
     1463.900000       0.929616
     1464.000000       0.929590
     1464.100000       0.929552
     1464.200000       0.929500
     1464.300000       0.929464
     1464.400000       0.929423
     1464.500000       0.929378
     1464.600000       0.929322
     1464.700000       0.929252
     1464.800000       0.929164
     1464.900000       0.929043
     1465.000000       0.928885
     1465.100000       0.928723
     1465.200000       0.928572
     1465.300000       0.928441
     1465.400000       0.928323
     1465.500000       0.928222
     1465.600000       0.928133
     1465.700000       0.928067
     1465.800000       0.928017
     1465.900000       0.927993
     1466.000000       0.927985
     1466.100000       0.927986
     1466.200000       0.928003
     1466.300000       0.928016
     1466.400000       0.928015
     1466.500000       0.928015
     1466.600000       0.928026
     1466.700000       0.928059
     1466.800000       0.928119
     1466.900000       0.928196
     1467.000000       0.928294
     1467.100000       0.928412
     1467.200000       0.928546
     1467.300000       0.928678
     1467.400000       0.928810
     1467.500000       0.928941
     1467.600000       0.929043
     1467.700000       0.929089
     1467.800000       0.929153
     1467.900000       0.929279
     1468.000000       0.929424
     1468.100000       0.929578
     1468.200000       0.929741
     1468.300000       0.929915
     1468.400000       0.930107
     1468.500000       0.930305
     1468.600000       0.930506
     1468.700000       0.930710
     1468.800000       0.930918
     1468.900000       0.931134
     1469.000000       0.931357
     1469.100000       0.931593
     1469.200000       0.931845
     1469.300000       0.932117
     1469.400000       0.932463
     1469.500000       0.932837
     1469.600000       0.933244
     1469.700000       0.933659
     1469.800000       0.934077
     1469.900000       0.934498
     1470.000000       0.934915
     1470.100000       0.935330
     1470.200000       0.935737
     1470.300000       0.936138
     1470.400000       0.936529
     1470.500000       0.936905
     1470.600000       0.937261
     1470.700000       0.937595
     1470.800000       0.937893
     1470.900000       0.938066
     1471.000000       0.938183
     1471.100000       0.938339
     1471.200000       0.938511
     1471.300000       0.938667
     1471.400000       0.938811
     1471.500000       0.938945
     1471.600000       0.939060
     1471.700000       0.939168
     1471.800000       0.939277
     1471.900000       0.939405
     1472.000000       0.939548
     1472.100000       0.939706
     1472.200000       0.939888
     1472.300000       0.940101
     1472.400000       0.940401
     1472.500000       0.940736
     1472.600000       0.940985
     1472.700000       0.941204
     1472.800000       0.941417
     1472.900000       0.941621
     1473.000000       0.941798
     1473.100000       0.941971
     1473.200000       0.942078
     1473.300000       0.942125
     1473.400000       0.942122
     1473.500000       0.942028
     1473.600000       0.941833
     1473.700000       0.941532
     1473.800000       0.941083
     1473.900000       0.940464
     1474.000000       0.939662
     1474.100000       0.938818
     1474.200000       0.937859
     1474.300000       0.936792
     1474.400000       0.935616
     1474.500000       0.934368
     1474.600000       0.933030
     1474.700000       0.931623
     1474.800000       0.930147
     1474.900000       0.928621
     1475.000000       0.927045
     1475.100000       0.925405
     1475.200000       0.923704
     1475.300000       0.921954
     1475.400000       0.920162
     1475.500000       0.918327
     1475.600000       0.916442
     1475.700000       0.914493
     1475.800000       0.912488
     1475.900000       0.910391
     1476.000000       0.908254
     1476.100000       0.906127
     1476.200000       0.904015
     1476.300000       0.901944
     1476.400000       0.899889
     1476.500000       0.897721
     1476.600000       0.895464
     1476.700000       0.892896
     1476.800000       0.889738
     1476.900000       0.886311
     1477.000000       0.882678
     1477.100000       0.878932
     1477.200000       0.875131
     1477.300000       0.871253
     1477.400000       0.867253
     1477.500000       0.863176
     1477.600000       0.859112
     1477.700000       0.855009
     1477.800000       0.850867
     1477.900000       0.846689
     1478.000000       0.842457
     1478.100000       0.838154
     1478.200000       0.833791
     1478.300000       0.829350
     1478.400000       0.824860
     1478.500000       0.820275
     1478.600000       0.815639
     1478.700000       0.810969
     1478.800000       0.806265
     1478.900000       0.801399
     1479.000000       0.796415
     1479.100000       0.791357
     1479.200000       0.786184
     1479.300000       0.780886
     1479.400000       0.775460
     1479.500000       0.769938
     1479.600000       0.764279
     1479.700000       0.758509
     1479.800000       0.752590
     1479.900000       0.746560
     1480.000000       0.740376
     1480.100000       0.734023
     1480.200000       0.727512
     1480.300000       0.720844
     1480.400000       0.714058
     1480.500000       0.707082
     1480.600000       0.700041
     1480.700000       0.692978
     1480.800000       0.685908
     1480.900000       0.678838
     1481.000000       0.671783
     1481.100000       0.664752
     1481.200000       0.657736
     1481.300000       0.650731
     1481.400000       0.643742
     1481.500000       0.636766
     1481.600000       0.629795
     1481.700000       0.622828
     1481.800000       0.615870
     1481.900000       0.608913
     1482.000000       0.601940
     1482.100000       0.594952
     1482.200000       0.587942
     1482.300000       0.580903
     1482.400000       0.573832
     1482.500000       0.566727
     1482.600000       0.559606
     1482.700000       0.552483
     1482.800000       0.545370
     1482.900000       0.538276
     1483.000000       0.531191
     1483.100000       0.524116
     1483.200000       0.517061
     1483.300000       0.510048
     1483.400000       0.503094
     1483.500000       0.496196
     1483.600000       0.489367
     1483.700000       0.482612
     1483.800000       0.475949
     1483.900000       0.469354
     1484.000000       0.462878
     1484.100000       0.456478
     1484.200000       0.450158
     1484.300000       0.443902
     1484.400000       0.437687
     1484.500000       0.431530
     1484.600000       0.425392
     1484.700000       0.419273
     1484.800000       0.413190
     1484.900000       0.407164
     1485.000000       0.401159
     1485.100000       0.395168
     1485.200000       0.389183
     1485.300000       0.383202
     1485.400000       0.377226
     1485.500000       0.371271
     1485.600000       0.365337
     1485.700000       0.359422
     1485.800000       0.353514
     1485.900000       0.347664
     1486.000000       0.341904
     1486.100000       0.336205
     1486.200000       0.330581
     1486.300000       0.325013
     1486.400000       0.319531
     1486.500000       0.314132
     1486.600000       0.308843
     1486.700000       0.303640
     1486.800000       0.298518
     1486.900000       0.293497
     1487.000000       0.288546
     1487.100000       0.283667
     1487.200000       0.278842
     1487.300000       0.274083
     1487.400000       0.269381
     1487.500000       0.264736
     1487.600000       0.260131
     1487.700000       0.255571
     1487.800000       0.251064
     1487.900000       0.246605
     1488.000000       0.242190
     1488.100000       0.237811
     1488.200000       0.233488
     1488.300000       0.229210
     1488.400000       0.224977
     1488.500000       0.220786
     1488.600000       0.216668
     1488.700000       0.212631
     1488.800000       0.208669
     1488.900000       0.204782
     1489.000000       0.200947
     1489.100000       0.197184
     1489.200000       0.193496
     1489.300000       0.189903
     1489.400000       0.186368
     1489.500000       0.182900
     1489.600000       0.179497
     1489.700000       0.176156
     1489.800000       0.172870
     1489.900000       0.169629
     1490.000000       0.166458
     1490.100000       0.163323
     1490.200000       0.160221
     1490.300000       0.157168
     1490.400000       0.154165
     1490.500000       0.151206
     1490.600000       0.148311
     1490.700000       0.145469
     1490.800000       0.142677
     1490.900000       0.139946
     1491.000000       0.137270
     1491.100000       0.134655
     1491.200000       0.132087
     1491.300000       0.129570
     1491.400000       0.127111
     1491.500000       0.124723
     1491.600000       0.122386
     1491.700000       0.120103
     1491.800000       0.117873
     1491.900000       0.115687
     1492.000000       0.113549
     1492.100000       0.111442
     1492.200000       0.109374
     1492.300000       0.107334
     1492.400000       0.105334
     1492.500000       0.103366
     1492.600000       0.101434
     1492.700000       0.099527
     1492.800000       0.097648
     1492.900000       0.095799
     1493.000000       0.093990
     1493.100000       0.092239
     1493.200000       0.090518
     1493.300000       0.088822
     1493.400000       0.087156
     1493.500000       0.085524
     1493.600000       0.083926
     1493.700000       0.082372
     1493.800000       0.080862
     1493.900000       0.079393
     1494.000000       0.077962
     1494.100000       0.076562
     1494.200000       0.075201
     1494.300000       0.073869
     1494.400000       0.072570
     1494.500000       0.071292
     1494.600000       0.070036
     1494.700000       0.068811
     1494.800000       0.067607
     1494.900000       0.066421
     1495.000000       0.065254
     1495.100000       0.064114
     1495.200000       0.062991
     1495.300000       0.061883
     1495.400000       0.060786
     1495.500000       0.059701
     1495.600000       0.058630
     1495.700000       0.057572
     1495.800000       0.056529
     1495.900000       0.055497
     1496.000000       0.054482
     1496.100000       0.053484
     1496.200000       0.052514
     1496.300000       0.051566
     1496.400000       0.050644
     1496.500000       0.049750
     1496.600000       0.048886
     1496.700000       0.048047
     1496.800000       0.047226
     1496.900000       0.046430
     1497.000000       0.045649
     1497.100000       0.044883
     1497.200000       0.044132
     1497.300000       0.043391
     1497.400000       0.042660
     1497.500000       0.041936
     1497.600000       0.041217
     1497.700000       0.040501
     1497.800000       0.039790
     1497.900000       0.039083
     1498.000000       0.038381
     1498.100000       0.037686
     1498.200000       0.037016
     1498.300000       0.036362
     1498.400000       0.035721
     1498.500000       0.035096
     1498.600000       0.034487
     1498.700000       0.033894
     1498.800000       0.033317
     1498.900000       0.032760
     1499.000000       0.032219
     1499.100000       0.031697
     1499.200000       0.031189
     1499.300000       0.030694
     1499.400000       0.030213
     1499.500000       0.029741
     1499.600000       0.029277
     1499.700000       0.028818
     1499.800000       0.028363
     1499.900000       0.027911
     1500.000000       0.027459
     1500.100000       0.027008
     1500.200000       0.026555
     1500.300000       0.026098
     1500.400000       0.025644
     1500.500000       0.025191
     1500.600000       0.024742
     1500.700000       0.024299
     1500.800000       0.023865
     1500.900000       0.023444
     1501.000000       0.023032
     1501.100000       0.022634
     1501.200000       0.022251
     1501.300000       0.021882
     1501.400000       0.021527
     1501.500000       0.021185
     1501.600000       0.020862
     1501.700000       0.020552
     1501.800000       0.020255
     1501.900000       0.019965
     1502.000000       0.019679
     1502.100000       0.019396
     1502.200000       0.019113
     1502.300000       0.018828
     1502.400000       0.018543
     1502.500000       0.018256
     1502.600000       0.017969
     1502.700000       0.017680
     1502.800000       0.017390
     1502.900000       0.017099
     1503.000000       0.016809
     1503.100000       0.016523
     1503.200000       0.016241
     1503.300000       0.015964
     1503.400000       0.015698
     1503.500000       0.015439
     1503.600000       0.015192
     1503.700000       0.014954
     1503.800000       0.014725
     1503.900000       0.014509
     1504.000000       0.014300
     1504.100000       0.014100
     1504.200000       0.013905
     1504.300000       0.013713
     1504.400000       0.013524
     1504.500000       0.013335
     1504.600000       0.013144
     1504.700000       0.012953
     1504.800000       0.012761
     1504.900000       0.012567
     1505.000000       0.012369
     1505.100000       0.012168
     1505.200000       0.011965
     1505.300000       0.011761
     1505.400000       0.011559
     1505.500000       0.011357
     1505.600000       0.011162
     1505.700000       0.010972
     1505.800000       0.010789
     1505.900000       0.010616
     1506.000000       0.010450
     1506.100000       0.010296
     1506.200000       0.010149
     1506.300000       0.010011
     1506.400000       0.009882
     1506.500000       0.009757
     1506.600000       0.009638
     1506.700000       0.009520
     1506.800000       0.009404
     1506.900000       0.009287
     1507.000000       0.009168
     1507.100000       0.009046
     1507.200000       0.008920
     1507.300000       0.008788
     1507.400000       0.008655
     1507.500000       0.008517
     1507.600000       0.008379
     1507.700000       0.008241
     1507.800000       0.008103
     1507.900000       0.007969
     1508.000000       0.007838
     1508.100000       0.007713
     1508.200000       0.007594
     1508.300000       0.007483
     1508.400000       0.007382
     1508.500000       0.007287
     1508.600000       0.007200
     1508.700000       0.007120
     1508.800000       0.007045
     1508.900000       0.006974
     1509.000000       0.006904
     1509.100000       0.006835
     1509.200000       0.006764
     1509.300000       0.006689
     1509.400000       0.006611
     1509.500000       0.006528
     1509.600000       0.006440
     1509.700000       0.006348
     1509.800000       0.006251
     1509.900000       0.006152
     1510.000000       0.006051
     1510.100000       0.005949
     1510.200000       0.005849
     1510.300000       0.005751
     1510.400000       0.005658
     1510.500000       0.005569
     1510.600000       0.005488
     1510.700000       0.005414
     1510.800000       0.005347
     1510.900000       0.005287
     1511.000000       0.005232
     1511.100000       0.005183
     1511.200000       0.005137
     1511.300000       0.005092
     1511.400000       0.005048
     1511.500000       0.005003
     1511.600000       0.004955
     1511.700000       0.004905
     1511.800000       0.004850
     1511.900000       0.004792
     1512.000000       0.004728
     1512.100000       0.004661
     1512.200000       0.004591
     1512.300000       0.004518
     1512.400000       0.004445
     1512.500000       0.004372
     1512.600000       0.004300
     1512.700000       0.004234
     1512.800000       0.004170
     1512.900000       0.004114
     1513.000000       0.004063
     1513.100000       0.004018
     1513.200000       0.003978
     1513.300000       0.003943
     1513.400000       0.003911
     1513.500000       0.003882
     1513.600000       0.003852
     1513.700000       0.003823
     1513.800000       0.003791
     1513.900000       0.003757
     1514.000000       0.003720
     1514.100000       0.003677
     1514.200000       0.003630
     1514.300000       0.003579
     1514.400000       0.003523
     1514.500000       0.003464
     1514.600000       0.003403
     1514.700000       0.003343
     1514.800000       0.003283
     1514.900000       0.003227
     1515.000000       0.003175
     1515.100000       0.003126
     1515.200000       0.003084
     1515.300000       0.003047
     1515.400000       0.003017
     1515.500000       0.002992
     1515.600000       0.002971
     1515.700000       0.002956
     1515.800000       0.002943
     1515.900000       0.002931
     1516.000000       0.002920
     1516.100000       0.002907
     1516.200000       0.002892
     1516.300000       0.002873
     1516.400000       0.002849
     1516.500000       0.002821
     1516.600000       0.002789
     1516.700000       0.002751
     1516.800000       0.002711
     1516.900000       0.002668
     1517.000000       0.002624
     1517.100000       0.002580
     1517.200000       0.002537
     1517.300000       0.002498
     1517.400000       0.002462
     1517.500000       0.002430
     1517.600000       0.002403
     1517.700000       0.002381
     1517.800000       0.002364
     1517.900000       0.002351
     1518.000000       0.002342
     1518.100000       0.002335
     1518.200000       0.002329
     1518.300000       0.002324
     1518.400000       0.002316
     1518.500000       0.002306
     1518.600000       0.002292
     1518.700000       0.002272
     1518.800000       0.002249
     1518.900000       0.002221
     1519.000000       0.002188
     1519.100000       0.002153
     1519.200000       0.002115
     1519.300000       0.002076
     1519.400000       0.002037
     1519.500000       0.001998
     1519.600000       0.001963
     1519.700000       0.001932
     1519.800000       0.001904
     1519.900000       0.001882
     1520.000000       0.001864
     1520.100000       0.001852
     1520.200000       0.001845
     1520.300000       0.001842
     1520.400000       0.001840
     1520.500000       0.001839
     1520.600000       0.001839
     1520.700000       0.001837
     1520.800000       0.001832
     1520.900000       0.001823
     1521.000000       0.001810
     1521.100000       0.001793
     1521.200000       0.001772
     1521.300000       0.001746
     1521.400000       0.001718
     1521.500000       0.001688
     1521.600000       0.001656
     1521.700000       0.001625
     1521.800000       0.001594
     1521.900000       0.001566
     1522.000000       0.001541
     1522.100000       0.001523
     1522.200000       0.001507
     1522.300000       0.001499
     1522.400000       0.001497
     1522.500000       0.001497
     1522.600000       0.001499
     1522.700000       0.001506
     1522.800000       0.001514
     1522.900000       0.001523
     1523.000000       0.001528
     1523.100000       0.001530
     1523.200000       0.001531
     1523.300000       0.001528
     1523.400000       0.001519
     1523.500000       0.001505
     1523.600000       0.001486
     1523.700000       0.001465
     1523.800000       0.001440
     1523.900000       0.001412
     1524.000000       0.001384
     1524.100000       0.001356
     1524.200000       0.001330
     1524.300000       0.001306
     1524.400000       0.001287
     1524.500000       0.001272
     1524.600000       0.001262
     1524.700000       0.001259
     1524.800000       0.001258
     1524.900000       0.001259
     1525.000000       0.001265
     1525.100000       0.001273
     1525.200000       0.001280
     1525.300000       0.001287
     1525.400000       0.001290
     1525.500000       0.001291
     1525.600000       0.001291
     1525.700000       0.001283
     1525.800000       0.001271
     1525.900000       0.001254
     1526.000000       0.001233
     1526.100000       0.001209
     1526.200000       0.001181
     1526.300000       0.001153
     1526.400000       0.001124
     1526.500000       0.001098
     1526.600000       0.001078
     1526.700000       0.001054
     1526.800000       0.000974
     1526.900000       0.000856
     1527.000000       0.000834
     1527.100000       0.000838
     1527.200000       0.000842
     1527.300000       0.000844
     1527.400000       0.000847
     1527.500000       0.000852
     1527.600000       0.000857
     1527.700000       0.000859
     1527.800000       0.000861
     1527.900000       0.000861
     1528.000000       0.000857
     1528.100000       0.000849
     1528.200000       0.000839
     1528.300000       0.000825
     1528.400000       0.000809
     1528.500000       0.000791
     1528.600000       0.000773
     1528.700000       0.000755
     1528.800000       0.000738
     1528.900000       0.000724
     1529.000000       0.000712
     1529.100000       0.000705
     1529.200000       0.000701
     1529.300000       0.000699
     1529.400000       0.000701
     1529.500000       0.000706
     1529.600000       0.000712
     1529.700000       0.000719
     1529.800000       0.000725
     1529.900000       0.000731
     1530.000000       0.000734
     1530.100000       0.000733
     1530.200000       0.000731
     1530.300000       0.000726
     1530.400000       0.000715
     1530.500000       0.000701
     1530.600000       0.000683
     1530.700000       0.000663
     1530.800000       0.000640
     1530.900000       0.000618
     1531.000000       0.000596
     1531.100000       0.000575
     1531.200000       0.000558
     1531.300000       0.000544
     1531.400000       0.000535
     1531.500000       0.000531
     1531.600000       0.000529
     1531.700000       0.000532
     1531.800000       0.000539
     1531.900000       0.000549
     1532.000000       0.000560
     1532.100000       0.000573
     1532.200000       0.000585
     1532.300000       0.000596
     1532.400000       0.000603
     1532.500000       0.000609
     1532.600000       0.000611
     1532.700000       0.000608
     1532.800000       0.000603
     1532.900000       0.000594
     1533.000000       0.000581
     1533.100000       0.000567
     1533.200000       0.000551
     1533.300000       0.000536
     1533.400000       0.000521
     1533.500000       0.000508
     1533.600000       0.000498
     1533.700000       0.000491
     1533.800000       0.000490
     1533.900000       0.000491
     1534.000000       0.000493
     1534.100000       0.000499
     1534.200000       0.000509
     1534.300000       0.000518
     1534.400000       0.000529
     1534.500000       0.000539
     1534.600000       0.000548
     1534.700000       0.000552
     1534.800000       0.000553
     1534.900000       0.000554
     1535.000000       0.000550
     1535.100000       0.000541
     1535.200000       0.000529
     1535.300000       0.000514
     1535.400000       0.000496
     1535.500000       0.000476
     1535.600000       0.000457
     1535.700000       0.000438
     1535.800000       0.000421
     1535.900000       0.000406
     1536.000000       0.000394
     1536.100000       0.000387
     1536.200000       0.000385
     1536.300000       0.000384
     1536.400000       0.000386
     1536.500000       0.000392
     1536.600000       0.000398
     1536.700000       0.000406
     1536.800000       0.000414
     1536.900000       0.000420
     1537.000000       0.000424
     1537.100000       0.000425
     1537.200000       0.000423
     1537.300000       0.000419
     1537.400000       0.000410
     1537.500000       0.000398
     1537.600000       0.000384
     1537.700000       0.000367
     1537.800000       0.000349
     1537.900000       0.000331
     1538.000000       0.000314
     1538.100000       0.000299
     1538.200000       0.000285
     1538.300000       0.000277
     1538.400000       0.000271
     1538.500000       0.000270
     1538.600000       0.000273
     1538.700000       0.000279
     1538.800000       0.000288
     1538.900000       0.000299
     1539.000000       0.000311
     1539.100000       0.000323
     1539.200000       0.000335
     1539.300000       0.000344
     1539.400000       0.000351
     1539.500000       0.000353
     1539.600000       0.000354
     1539.700000       0.000353
     1539.800000       0.000346
     1539.900000       0.000336
     1540.000000       0.000325
     1540.100000       0.000311
     1540.200000       0.000297
     1540.300000       0.000283
     1540.400000       0.000270
     1540.500000       0.000258
     1540.600000       0.000248
     1540.700000       0.000241
     1540.800000       0.000236
     1540.900000       0.000236
     1541.000000       0.000238
     1541.100000       0.000241
     1541.200000       0.000247
     1541.300000       0.000253
     1541.400000       0.000260
     1541.500000       0.000266
     1541.600000       0.000268
     1541.700000       0.000269
     1541.800000       0.000269
     1541.900000       0.000266
     1542.000000       0.000258
     1542.100000       0.000247
     1542.200000       0.000235
     1542.300000       0.000221
     1542.400000       0.000205
     1542.500000       0.000189
     1542.600000       0.000174
     1542.700000       0.000160
     1542.800000       0.000147
     1542.900000       0.000137
     1543.000000       0.000131
     1543.100000       0.000127
     1543.200000       0.000126
     1543.300000       0.000128
     1543.400000       0.000133
     1543.500000       0.000140
     1543.600000       0.000148
     1543.700000       0.000157
     1543.800000       0.000165
     1543.900000       0.000173
     1544.000000       0.000177
     1544.100000       0.000180
     1544.200000       0.000181
     1544.300000       0.000178
     1544.400000       0.000174
     1544.500000       0.000167
     1544.600000       0.000158
     1544.700000       0.000149
     1544.800000       0.000139
     1544.900000       0.000130
     1545.000000       0.000121
     1545.100000       0.000115
     1545.200000       0.000111
     1545.300000       0.000109
     1545.400000       0.000109
     1545.500000       0.000112
